Source: Spectrum Viewer

Chart: Pulse Spectrum

Series: 
Wavelength (nm)	S (a.u.)
617.638	0.0274015
617.773	0.0277709
617.908	0.0278325
618.043	0.0277709
618.178	0.0282635
618.313	0.0283251
618.448	0.0278941
618.583	0.0274631
618.718	0.0271552
618.853	0.0278325
618.988	0.0274631
619.123	0.0279557
619.258	0.0277709
619.394	0.028202
619.529	0.0275862
619.664	0.0281404
619.799	0.0293103
619.934	0.0278941
620.069	0.0276478
620.204	0.0277094
620.339	0.0268473
620.474	0.027032
620.609	0.0278941
620.744	0.028202
620.879	0.0277709
621.014	0.0277094
621.149	0.0278941
621.284	0.0284483
621.419	0.0281404
621.554	0.0284483
621.689	0.0280788
621.825	0.0281404
621.96	0.0278325
622.095	0.0276478
622.23	0.0285714
622.365	0.0277709
622.5	0.0274631
622.635	0.0280172
622.77	0.0269704
622.905	0.0278325
623.04	0.028202
623.175	0.0277709
623.31	0.0278325
623.445	0.0281404
623.58	0.0277709
623.715	0.0283867
623.85	0.0280172
623.985	0.0283251
624.12	0.028633
624.255	0.0287562
624.39	0.0269089
624.525	0.0279557
624.661	0.0290025
624.796	0.0282635
624.931	0.0289409
625.066	0.0276478
625.201	0.0277094
625.336	0.0274015
625.471	0.0280788
625.606	0.0283867
625.741	0.028202
625.876	0.0278325
626.011	0.0288177
626.146	0.0277709
626.281	0.0279557
626.416	0.0277094
626.551	0.0279557
626.686	0.0278941
626.821	0.0283251
626.956	0.0278325
627.091	0.0277709
627.226	0.0283251
627.361	0.027032
627.496	0.0273399
627.631	0.0278325
627.766	0.0273399
627.901	0.0288793
628.036	0.0285714
628.171	0.0274631
628.307	0.0282635
628.442	0.0277709
628.577	0.028202
628.712	0.0283867
628.847	0.0286946
628.982	0.0278941
629.117	0.0269089
629.252	0.028633
629.387	0.0269704
629.522	0.0288177
629.657	0.028202
629.792	0.0278941
629.927	0.0281404
630.062	0.0269089
630.197	0.028202
630.332	0.0272167
630.467	0.0277094
630.602	0.0274015
630.737	0.0276478
630.872	0.0285099
631.007	0.0277709
631.142	0.0276478
631.277	0.0280172
631.412	0.028202
631.547	0.0278941
631.682	0.0273399
631.817	0.0283867
631.952	0.0277709
632.087	0.0283867
632.222	0.028202
632.357	0.0285099
632.492	0.0282635
632.627	0.0272783
632.762	0.0282635
632.897	0.0272783
633.032	0.0282635
633.167	0.0278941
633.302	0.0280788
633.437	0.0270936
633.572	0.0278941
633.707	0.0281404
633.842	0.0272783
633.978	0.0278941
634.113	0.0277094
634.248	0.0291256
634.383	0.0274015
634.518	0.0284483
634.653	0.0288793
634.788	0.0279557
634.923	0.0283867
635.058	0.0277709
635.193	0.0281404
635.328	0.0277709
635.463	0.027032
635.598	0.0282635
635.733	0.0271552
635.868	0.0281404
636.003	0.0282635
636.138	0.0277094
636.273	0.0281404
636.408	0.0275246
636.543	0.0284483
636.678	0.0272783
636.813	0.0280788
636.948	0.0272167
637.083	0.0280788
637.218	0.0275862
637.353	0.0282635
637.488	0.0280788
637.623	0.0272783
637.758	0.0275862
637.893	0.0283867
638.028	0.0276478
638.163	0.0285099
638.298	0.0279557
638.433	0.0280788
638.568	0.0278325
638.703	0.0283867
638.838	0.0269704
638.973	0.0287562
639.108	0.0280172
639.243	0.0275862
639.378	0.029064
639.513	0.0278941
639.648	0.0280788
639.783	0.0280788
639.918	0.0286946
640.053	0.0279557
640.188	0.0281404
640.323	0.0277094
640.458	0.0278325
640.593	0.0279557
640.728	0.0284483
640.863	0.0278941
640.998	0.0270936
641.133	0.0277709
641.268	0.0279557
641.403	0.0274015
641.538	0.0276478
641.673	0.0277094
641.808	0.0278325
641.943	0.0278941
642.078	0.0276478
642.213	0.0275862
642.348	0.0277094
642.483	0.0285099
642.618	0.028633
642.753	0.0277709
642.888	0.0279557
643.023	0.0285099
643.158	0.0278941
643.293	0.0279557
643.428	0.0277709
643.563	0.0277094
643.698	0.0276478
643.833	0.0277094
643.968	0.0276478
644.103	0.0283867
644.237	0.028633
644.372	0.0282635
644.507	0.0280788
644.642	0.0274015
644.777	0.0273399
644.912	0.0280172
645.047	0.0272783
645.182	0.0278941
645.317	0.0274015
645.452	0.0274631
645.587	0.0273399
645.722	0.0277709
645.857	0.0282635
645.992	0.0278325
646.127	0.0275862
646.262	0.0287562
646.397	0.0277094
646.532	0.028202
646.667	0.0283867
646.802	0.0276478
646.937	0.0273399
647.072	0.029064
647.207	0.0284483
647.342	0.0276478
647.477	0.028202
647.612	0.0291872
647.747	0.027032
647.882	0.0272783
648.017	0.0275862
648.152	0.0277709
648.287	0.0278325
648.422	0.0278941
648.557	0.0274631
648.692	0.0277709
648.827	0.0278325
648.962	0.0280788
649.097	0.0280172
649.232	0.0277094
649.367	0.0270936
649.502	0.0275862
649.637	0.0283251
649.772	0.0278941
649.906	0.0280172
650.041	0.0287562
650.176	0.0285099
650.311	0.0277094
650.446	0.0271552
650.581	0.0284483
650.716	0.0274015
650.851	0.0277094
650.986	0.0273399
651.121	0.0280172
651.256	0.0277094
651.391	0.0284483
651.526	0.0278941
651.661	0.0282635
651.796	0.0275246
651.931	0.0283251
652.066	0.028202
652.201	0.0285714
652.336	0.0274631
652.471	0.0274631
652.606	0.0284483
652.741	0.0275246
652.876	0.0281404
653.011	0.028202
653.146	0.0277094
653.281	0.0275862
653.415	0.0275862
653.55	0.0288177
653.685	0.0281404
653.82	0.0272783
653.955	0.0285099
654.09	0.0282635
654.225	0.0280172
654.36	0.0280172
654.495	0.0276478
654.63	0.0278325
654.765	0.0277709
654.9	0.0278325
655.035	0.028633
655.17	0.028202
655.305	0.0274015
655.44	0.0279557
655.575	0.0284483
655.71	0.0283251
655.845	0.0274631
655.98	0.0274631
656.115	0.0280788
656.25	0.0278941
656.384	0.0279557
656.519	0.028202
656.654	0.0283251
656.789	0.0279557
656.924	0.027032
657.059	0.0280788
657.194	0.0272783
657.329	0.0275862
657.464	0.027032
657.599	0.0281404
657.734	0.0272783
657.869	0.0284483
658.004	0.0285714
658.139	0.0280172
658.274	0.0283867
658.409	0.028202
658.544	0.0274631
658.679	0.0282635
658.813	0.0283251
658.948	0.0280788
659.083	0.0277709
659.218	0.0285714
659.353	0.0278325
659.488	0.0280172
659.623	0.0279557
659.758	0.0284483
659.893	0.0277094
660.028	0.0272783
660.163	0.0278941
660.298	0.0283251
660.433	0.028202
660.568	0.0283251
660.703	0.0284483
660.838	0.0283867
660.972	0.0277094
661.107	0.0277094
661.242	0.0281404
661.377	0.0277094
661.512	0.0274015
661.647	0.0275862
661.782	0.0285099
661.917	0.0281404
662.052	0.0277094
662.187	0.0281404
662.322	0.0276478
662.457	0.0280788
662.592	0.028202
662.727	0.0285099
662.862	0.0274631
662.996	0.0277709
663.131	0.0284483
663.266	0.0285099
663.401	0.0277094
663.536	0.0272783
663.671	0.0281404
663.806	0.0275246
663.941	0.0273399
664.076	0.0285099
664.211	0.0280172
664.346	0.0272167
664.481	0.0282635
664.616	0.0271552
664.75	0.0284483
664.885	0.0277709
665.02	0.0277709
665.155	0.0286946
665.29	0.0275862
665.425	0.0275246
665.56	0.0285099
665.695	0.0280172
665.83	0.0282635
665.965	0.0278325
666.1	0.0284483
666.235	0.0275862
666.37	0.0270936
666.504	0.0286946
666.639	0.0283867
666.774	0.0281404
666.909	0.0287562
667.044	0.0278325
667.179	0.0275862
667.314	0.0280172
667.449	0.0278325
667.584	0.0274631
667.719	0.0278325
667.854	0.028202
667.989	0.0276478
668.123	0.0282635
668.258	0.0283867
668.393	0.028633
668.528	0.0285099
668.663	0.0274631
668.798	0.0279557
668.933	0.0274631
669.068	0.0284483
669.203	0.0277709
669.338	0.0283867
669.473	0.0275862
669.607	0.0277094
669.742	0.0286946
669.877	0.0274631
670.012	0.0282635
670.147	0.0278941
670.282	0.0291256
670.417	0.028202
670.552	0.0288793
670.687	0.0279557
670.822	0.0283867
670.957	0.0279557
671.091	0.0275246
671.226	0.0278325
671.361	0.0281404
671.496	0.027032
671.631	0.0279557
671.766	0.028202
671.901	0.0276478
672.036	0.0279557
672.171	0.0281404
672.306	0.0283867
672.44	0.0285099
672.575	0.0282635
672.71	0.0278325
672.845	0.0271552
672.98	0.0275246
673.115	0.0277709
673.25	0.0274015
673.385	0.0281404
673.52	0.0277709
673.655	0.0280172
673.789	0.0278325
673.924	0.0271552
674.059	0.0289409
674.194	0.0278325
674.329	0.028633
674.464	0.0285099
674.599	0.0278941
674.734	0.0285714
674.869	0.0277094
675.003	0.0274631
675.138	0.0274631
675.273	0.0278325
675.408	0.0281404
675.543	0.0278941
675.678	0.0283251
675.813	0.0280172
675.948	0.0280172
676.083	0.0279557
676.217	0.0285099
676.352	0.0280172
676.487	0.0270936
676.622	0.0286946
676.757	0.0277709
676.892	0.028202
677.027	0.0273399
677.162	0.0275246
677.297	0.0278325
677.431	0.0280172
677.566	0.028202
677.701	0.0277094
677.836	0.028202
677.971	0.0282635
678.106	0.0287562
678.241	0.0277094
678.376	0.0278325
678.511	0.0278941
678.645	0.0276478
678.78	0.0274015
678.915	0.0280788
679.05	0.0277709
679.185	0.0281404
679.32	0.0279557
679.455	0.0280788
679.59	0.0277709
679.724	0.0289409
679.859	0.0282635
679.994	0.0289409
680.129	0.0283867
680.264	0.0288793
680.399	0.0274015
680.534	0.0275246
680.669	0.0278325
680.803	0.0289409
680.938	0.0278941
681.073	0.0283867
681.208	0.0274631
681.343	0.0278941
681.478	0.0274631
681.613	0.0280788
681.748	0.0277709
681.882	0.0277094
682.017	0.0270936
682.152	0.0288177
682.287	0.027032
682.422	0.028202
682.557	0.0271552
682.692	0.0282635
682.827	0.0278941
682.961	0.0278941
683.096	0.0280172
683.231	0.0283251
683.366	0.0270936
683.501	0.0283867
683.636	0.0282635
683.771	0.0285099
683.906	0.0278941
684.04	0.0281404
684.175	0.0288793
684.31	0.0285099
684.445	0.0278941
684.58	0.0278325
684.715	0.0280788
684.85	0.0284483
684.984	0.0276478
685.119	0.0288177
685.254	0.0274631
685.389	0.0282635
685.524	0.0278325
685.659	0.0277094
685.794	0.028633
685.928	0.0272167
686.063	0.0275862
686.198	0.0278941
686.333	0.0279557
686.468	0.0286946
686.603	0.0280172
686.738	0.0286946
686.872	0.0278941
687.007	0.0276478
687.142	0.0280172
687.277	0.0278941
687.412	0.0281404
687.547	0.028633
687.682	0.0278941
687.816	0.0294951
687.951	0.0282635
688.086	0.0287562
688.221	0.0289409
688.356	0.0283867
688.491	0.0275246
688.626	0.0280172
688.76	0.0278941
688.895	0.0281404
689.03	0.0283867
689.165	0.0280172
689.3	0.0278325
689.435	0.0288793
689.57	0.0282635
689.704	0.028633
689.839	0.0281404
689.974	0.0277094
690.109	0.0272783
690.244	0.0277709
690.379	0.0286946
690.513	0.0269089
690.648	0.0280788
690.783	0.0273399
690.918	0.0285714
691.053	0.0277709
691.188	0.0278325
691.323	0.0279557
691.457	0.0283867
691.592	0.0267857
691.727	0.0281404
691.862	0.0285099
691.997	0.0278941
692.132	0.0273399
692.266	0.0283251
692.401	0.0287562
692.536	0.0283867
692.671	0.0280172
692.806	0.0278941
692.941	0.0281404
693.075	0.0272167
693.21	0.0283251
693.345	0.0279557
693.48	0.0289409
693.615	0.0278325
693.75	0.0280788
693.885	0.0269089
694.019	0.0284483
694.154	0.0277709
694.289	0.028202
694.424	0.0277709
694.559	0.0278941
694.694	0.0279557
694.828	0.0269089
694.963	0.0274631
695.098	0.0275862
695.233	0.0278941
695.368	0.0285714
695.503	0.0285099
695.637	0.0280788
695.772	0.028202
695.907	0.0272783
696.042	0.0272783
696.177	0.0278941
696.312	0.0280172
696.446	0.028202
696.581	0.028202
696.716	0.0288177
696.851	0.0273399
696.986	0.0278941
697.12	0.0282635
697.255	0.0280788
697.39	0.0272783
697.525	0.0280172
697.66	0.0275862
697.795	0.0282635
697.929	0.0285099
698.064	0.0284483
698.199	0.0279557
698.334	0.0278325
698.469	0.0274631
698.604	0.0277709
698.738	0.0280788
698.873	0.0280788
699.008	0.0275246
699.143	0.0283251
699.278	0.0280788
699.412	0.0277094
699.547	0.0278325
699.682	0.0278941
699.817	0.0273399
699.952	0.0282635
700.087	0.028202
700.221	0.0277709
700.356	0.0276478
700.491	0.0269704
700.626	0.0286946
700.761	0.0277094
700.895	0.0277709
701.03	0.0278325
701.165	0.0278325
701.3	0.0277709
701.435	0.0281404
701.57	0.0279557
701.704	0.0274631
701.839	0.0275246
701.974	0.0285099
702.109	0.0281404
702.244	0.0284483
702.378	0.028633
702.513	0.0275862
702.648	0.0274015
702.783	0.0276478
702.918	0.0290025
703.052	0.0273399
703.187	0.0278325
703.322	0.0277709
703.457	0.0280172
703.592	0.0273399
703.727	0.0279557
703.861	0.0280172
703.996	0.028633
704.131	0.0277709
704.266	0.027032
704.401	0.0285714
704.535	0.0279557
704.67	0.0274631
704.805	0.0280788
704.94	0.0280788
705.075	0.0272783
705.209	0.0274631
705.344	0.0275246
705.479	0.028202
705.614	0.0277709
705.749	0.0277094
705.883	0.0285714
706.018	0.0278325
706.153	0.0282635
706.288	0.0275862
706.423	0.0277709
706.557	0.0272783
706.692	0.0283867
706.827	0.027032
706.962	0.028202
707.097	0.0281404
707.231	0.0282635
707.366	0.0275862
707.501	0.0277094
707.636	0.0279557
707.771	0.0281404
707.905	0.0276478
708.04	0.0280172
708.175	0.0279557
708.31	0.0283251
708.445	0.0278941
708.579	0.0276478
708.714	0.0277709
708.849	0.0277094
708.984	0.0287562
709.118	0.0272167
709.253	0.0280172
709.388	0.0278325
709.523	0.0283251
709.658	0.0284483
709.792	0.0279557
709.927	0.0284483
710.062	0.0277709
710.197	0.0285714
710.332	0.028202
710.466	0.0285099
710.601	0.027032
710.736	0.0287562
710.871	0.0279557
711.006	0.0284483
711.14	0.0278325
711.275	0.0281404
711.41	0.0282635
711.545	0.0276478
711.679	0.0270936
711.814	0.0283867
711.949	0.0274015
712.084	0.0285714
712.219	0.0275246
712.353	0.0278941
712.488	0.0277709
712.623	0.0272783
712.758	0.0273399
712.892	0.028633
713.027	0.0275862
713.162	0.0284483
713.297	0.0272783
713.432	0.0277709
713.566	0.0278941
713.701	0.0283251
713.836	0.0274015
713.971	0.028633
714.105	0.0284483
714.24	0.0280788
714.375	0.0282635
714.51	0.0275862
714.645	0.0278325
714.779	0.0279557
714.914	0.0280788
715.049	0.0271552
715.184	0.0277094
715.318	0.0276478
715.453	0.0275862
715.588	0.0279557
715.723	0.0283867
715.858	0.0272167
715.992	0.0282635
716.127	0.0285714
716.262	0.0282635
716.397	0.0276478
716.531	0.0287562
716.666	0.0277094
716.801	0.0281404
716.936	0.0274015
717.07	0.028202
717.205	0.0281404
717.34	0.0280788
717.475	0.0275862
717.61	0.0277709
717.744	0.0274631
717.879	0.0283251
718.014	0.0281404
718.149	0.0290025
718.283	0.0290025
718.418	0.0275862
718.553	0.0284483
718.688	0.0270936
718.822	0.0284483
718.957	0.0285099
719.092	0.0278325
719.227	0.0278941
719.361	0.0285714
719.496	0.0286946
719.631	0.0289409
719.766	0.0275246
719.9	0.0277709
720.035	0.0277094
720.17	0.0278941
720.305	0.0269089
720.44	0.0280788
720.574	0.027032
720.709	0.0280172
720.844	0.0276478
720.979	0.0278325
721.113	0.0281404
721.248	0.0283867
721.383	0.0279557
721.518	0.0273399
721.652	0.0288793
721.787	0.0279557
721.922	0.0276478
722.057	0.0277094
722.191	0.028202
722.326	0.0281404
722.461	0.0287562
722.596	0.0280788
722.73	0.0274015
722.865	0.0281404
723	0.0276478
723.135	0.0275862
723.269	0.0283251
723.404	0.0287562
723.539	0.0281404
723.674	0.0282635
723.808	0.0283251
723.943	0.0286946
724.078	0.0280788
724.213	0.0277094
724.347	0.0274015
724.482	0.0269704
724.617	0.0275246
724.752	0.028202
724.886	0.0273399
725.021	0.0275862
725.156	0.027032
725.291	0.0268473
725.425	0.0281404
725.56	0.0278941
725.695	0.0278325
725.829	0.0272167
725.964	0.0276478
726.099	0.0283251
726.234	0.0283867
726.368	0.0287562
726.503	0.0280788
726.638	0.028202
726.773	0.0282635
726.907	0.0275246
727.042	0.0276478
727.177	0.0283867
727.312	0.0279557
727.446	0.0288177
727.581	0.0279557
727.716	0.0283867
727.851	0.0276478
727.985	0.0283867
728.12	0.0281404
728.255	0.0289409
728.389	0.0278325
728.524	0.0288177
728.659	0.0283251
728.794	0.0280788
728.928	0.0278941
729.063	0.0285714
729.198	0.0272167
729.333	0.028633
729.467	0.0270936
729.602	0.0282635
729.737	0.0288793
729.872	0.028202
730.006	0.0282635
730.141	0.0272783
730.276	0.0278941
730.41	0.0288793
730.545	0.0275246
730.68	0.0283251
730.815	0.0281404
730.949	0.0279557
731.084	0.0289409
731.219	0.0280172
731.354	0.0267857
731.488	0.028202
731.623	0.0275862
731.758	0.0277094
731.892	0.0277709
732.027	0.0278325
732.162	0.0284483
732.297	0.0285714
732.431	0.0283251
732.566	0.028202
732.701	0.0278941
732.835	0.0278941
732.97	0.0277094
733.105	0.0286946
733.24	0.0275246
733.374	0.0274015
733.509	0.0277709
733.644	0.0284483
733.779	0.0276478
733.913	0.0284483
734.048	0.0280172
734.183	0.028202
734.317	0.0278941
734.452	0.0283867
734.587	0.028202
734.722	0.0281404
734.856	0.0283251
734.991	0.0274631
735.126	0.0285099
735.26	0.0284483
735.395	0.0277709
735.53	0.0287562
735.665	0.0267241
735.799	0.0278325
735.934	0.0275862
736.069	0.0278941
736.203	0.0281404
736.338	0.0283867
736.473	0.0285099
736.607	0.0279557
736.742	0.0282635
736.877	0.028202
737.012	0.0275246
737.146	0.0280172
737.281	0.0272783
737.416	0.0266626
737.55	0.0282635
737.685	0.0280172
737.82	0.0279557
737.955	0.0274015
738.089	0.0281404
738.224	0.0276478
738.359	0.0284483
738.493	0.0286946
738.628	0.0278941
738.763	0.0274631
738.897	0.0285714
739.032	0.0280172
739.167	0.0283867
739.302	0.0274631
739.436	0.0281404
739.571	0.0272783
739.706	0.0280172
739.84	0.028202
739.975	0.0286946
740.11	0.0282635
740.244	0.0277094
740.379	0.0269704
740.514	0.0284483
740.649	0.0285099
740.783	0.0279557
740.918	0.0281404
741.053	0.0283251
741.187	0.0291256
741.322	0.0282635
741.457	0.0276478
741.591	0.0281404
741.726	0.0274631
741.861	0.0268473
741.996	0.0284483
742.13	0.0276478
742.265	0.0280788
742.4	0.0287562
742.534	0.0277709
742.669	0.0278941
742.804	0.0287562
742.938	0.0281404
743.073	0.0283867
743.208	0.0287562
743.342	0.0285099
743.477	0.0275862
743.612	0.0271552
743.747	0.0280172
743.881	0.0280788
744.016	0.0278941
744.151	0.0281404
744.285	0.0275862
744.42	0.0283867
744.555	0.0283251
744.689	0.0278941
744.824	0.0277709
744.959	0.0284483
745.093	0.0274015
745.228	0.0282635
745.363	0.029064
745.497	0.0279557
745.632	0.0277094
745.767	0.0278325
745.901	0.0285099
746.036	0.0282635
746.171	0.0278941
746.305	0.028202
746.44	0.0277709
746.575	0.0281404
746.71	0.0281404
746.844	0.0272167
746.979	0.0271552
747.114	0.0277709
747.248	0.0277709
747.383	0.0283251
747.518	0.0275862
747.652	0.0291872
747.787	0.0270936
747.922	0.028202
748.056	0.0274631
748.191	0.0277094
748.326	0.0277094
748.46	0.0274015
748.595	0.0270936
748.73	0.0283867
748.864	0.0281404
748.999	0.0280172
749.134	0.0276478
749.268	0.0283867
749.403	0.0282635
749.538	0.0280172
749.672	0.0282635
749.807	0.0285099
749.942	0.0282635
750.076	0.0275246
750.211	0.0284483
750.346	0.0272783
750.48	0.0285714
750.615	0.0286946
750.75	0.0278941
750.884	0.0280788
751.019	0.0278325
751.154	0.0280788
751.288	0.0276478
751.423	0.0283251
751.558	0.0283867
751.692	0.0285099
751.827	0.028633
751.962	0.0283867
752.096	0.0279557
752.231	0.0277709
752.366	0.0280788
752.5	0.0275862
752.635	0.0275246
752.77	0.0279557
752.904	0.0277094
753.039	0.0277094
753.174	0.0283867
753.308	0.0277094
753.443	0.0272167
753.578	0.028202
753.712	0.0275246
753.847	0.0283867
753.982	0.0280788
754.116	0.0287562
754.251	0.0278941
754.386	0.028202
754.52	0.0278941
754.655	0.028633
754.79	0.0285099
754.924	0.0277709
755.059	0.0285099
755.194	0.0274015
755.328	0.0294951
755.463	0.0272783
755.597	0.0279557
755.732	0.0272783
755.867	0.0277094
756.001	0.0280788
756.136	0.0287562
756.271	0.0275862
756.405	0.0283867
756.54	0.0275246
756.675	0.0280172
756.809	0.0279557
756.944	0.0274015
757.079	0.0283867
757.213	0.0274631
757.348	0.0278325
757.483	0.0282635
757.617	0.0285714
757.752	0.0287562
757.887	0.0278941
758.021	0.026601
758.156	0.0280172
758.29	0.0283251
758.425	0.0277094
758.56	0.0282635
758.694	0.0280172
758.829	0.0277709
758.964	0.0282635
759.098	0.0283251
759.233	0.0280172
759.368	0.0286946
759.502	0.0279557
759.637	0.0283251
759.772	0.0276478
759.906	0.0277709
760.041	0.0280172
760.175	0.0267857
760.31	0.0280788
760.445	0.0278325
760.579	0.0275862
760.714	0.028202
760.849	0.0277094
760.983	0.0279557
761.118	0.0272167
761.253	0.0276478
761.387	0.0286946
761.522	0.0275246
761.656	0.0275862
761.791	0.0282635
761.926	0.028202
762.06	0.0278941
762.195	0.0278325
762.33	0.0278325
762.464	0.028633
762.599	0.029064
762.733	0.0285099
762.868	0.0279557
763.003	0.0279557
763.137	0.0275246
763.272	0.0278325
763.407	0.028202
763.541	0.0277094
763.676	0.028202
763.811	0.0277709
763.945	0.0285099
764.08	0.0274015
764.214	0.0280788
764.349	0.028202
764.484	0.0278325
764.618	0.0279557
764.753	0.0282635
764.888	0.0277709
765.022	0.0284483
765.157	0.0280172
765.291	0.0277094
765.426	0.0287562
765.561	0.0274631
765.695	0.0283251
765.83	0.0267857
765.965	0.0278941
766.099	0.0285099
766.234	0.0284483
766.368	0.0280788
766.503	0.0279557
766.638	0.0276478
766.772	0.0277709
766.907	0.0280788
767.041	0.0279557
767.176	0.0279557
767.311	0.0288177
767.445	0.0286946
767.58	0.0283251
767.715	0.0283867
767.849	0.0277709
767.984	0.0270936
768.118	0.0275862
768.253	0.0279557
768.388	0.028202
768.522	0.0281404
768.657	0.0277094
768.791	0.0280788
768.926	0.0274015
769.061	0.0275246
769.195	0.0278325
769.33	0.0277709
769.465	0.0286946
769.599	0.0270936
769.734	0.0276478
769.868	0.0281404
770.003	0.0282635
770.138	0.0283867
770.272	0.0287562
770.407	0.0269704
770.541	0.0280788
770.676	0.029064
770.811	0.0272783
770.945	0.0280172
771.08	0.0285099
771.214	0.0275246
771.349	0.0272783
771.484	0.0285099
771.618	0.0286946
771.753	0.0280788
771.887	0.0282635
772.022	0.0277709
772.157	0.0283251
772.291	0.028202
772.426	0.0283251
772.56	0.0273399
772.695	0.0280172
772.83	0.028633
772.964	0.0274015
773.099	0.0279557
773.233	0.0277709
773.368	0.0277709
773.503	0.0279557
773.637	0.0286946
773.772	0.0277709
773.906	0.0280172
774.041	0.0278325
774.176	0.0281404
774.31	0.0283251
774.445	0.0270936
774.579	0.0275862
774.714	0.0278941
774.849	0.0286946
774.983	0.0288793
775.118	0.0280788
775.252	0.0282635
775.387	0.0275246
775.522	0.0285714
775.656	0.0282635
775.791	0.0275246
775.925	0.028202
776.06	0.0282635
776.195	0.0277094
776.329	0.0273399
776.464	0.0277094
776.598	0.0280788
776.733	0.0280172
776.868	0.0275862
777.002	0.0281404
777.137	0.0270936
777.271	0.0274631
777.406	0.0282635
777.54	0.0280172
777.675	0.0274631
777.81	0.0278941
777.944	0.0285099
778.079	0.0280788
778.213	0.0281404
778.348	0.0292488
778.483	0.028202
778.617	0.0279557
778.752	0.0279557
778.886	0.0275862
779.021	0.0277094
779.155	0.0283867
779.29	0.0280172
779.425	0.0272783
779.559	0.0288177
779.694	0.0285099
779.828	0.0275862
779.963	0.0285714
780.098	0.0276478
780.232	0.028202
780.367	0.028202
780.501	0.0281404
780.636	0.0283867
780.77	0.0285099
780.905	0.029064
781.04	0.0274631
781.174	0.028202
781.309	0.0285714
781.443	0.0272167
781.578	0.0291872
781.712	0.0274015
781.847	0.0278941
781.982	0.0280788
782.116	0.0285714
782.251	0.0280172
782.385	0.0280788
782.52	0.0278941
782.654	0.0284483
782.789	0.0274631
782.924	0.0280788
783.058	0.0271552
783.193	0.0283867
783.327	0.0283867
783.462	0.0293719
783.596	0.0281404
783.731	0.0284483
783.866	0.0276478
784	0.0280172
784.135	0.0278941
784.269	0.0285714
784.404	0.029064
784.538	0.0279557
784.673	0.0277094
784.808	0.0285099
784.942	0.0278325
785.077	0.0276478
785.211	0.0284483
785.346	0.0277709
785.48	0.0278325
785.615	0.0274631
785.75	0.0276478
785.884	0.0270936
786.019	0.0281404
786.153	0.0278325
786.288	0.0279557
786.422	0.0282635
786.557	0.0285714
786.691	0.0282635
786.826	0.0287562
786.961	0.0278941
787.095	0.0283867
787.23	0.0278325
787.364	0.0277094
787.499	0.0285099
787.633	0.0282635
787.768	0.0280172
787.902	0.0277094
788.037	0.0272167
788.172	0.0280788
788.306	0.0277709
788.441	0.0287562
788.575	0.0278941
788.71	0.0288177
788.844	0.0287562
788.979	0.0283867
789.113	0.0278325
789.248	0.0279557
789.383	0.028202
789.517	0.0277094
789.652	0.0285099
789.786	0.0291872
789.921	0.0285714
790.055	0.0278325
790.19	0.0273399
790.324	0.0278325
790.459	0.0284483
790.594	0.0274015
790.728	0.0284483
790.863	0.0275862
790.997	0.0275862
791.132	0.0277094
791.266	0.0278941
791.401	0.0280172
791.535	0.0283867
791.67	0.0275246
791.804	0.0276478
791.939	0.0279557
792.074	0.028202
792.208	0.028202
792.343	0.0289409
792.477	0.0269089
792.612	0.0291256
792.746	0.0280172
792.881	0.0283867
793.015	0.0282635
793.15	0.0278325
793.284	0.0280788
793.419	0.0274631
793.553	0.0285714
793.688	0.0283251
793.823	0.0291256
793.957	0.0276478
794.092	0.0280788
794.226	0.0283867
794.361	0.0282635
794.495	0.0279557
794.63	0.0276478
794.764	0.0275862
794.899	0.0275862
795.033	0.0278325
795.168	0.0285714
795.302	0.0284483
795.437	0.0275246
795.572	0.0288177
795.706	0.0281404
795.841	0.0278325
795.975	0.0285714
796.11	0.0278325
796.244	0.0275862
796.379	0.028202
796.513	0.0284483
796.648	0.028202
796.782	0.0280172
796.917	0.028633
797.051	0.0283867
797.186	0.028202
797.32	0.0288177
797.455	0.0277094
797.589	0.0283867
797.724	0.0281404
797.859	0.0283867
797.993	0.0285099
798.128	0.0271552
798.262	0.0280788
798.397	0.0274631
798.531	0.0278325
798.666	0.0271552
798.8	0.0281404
798.935	0.0279557
799.069	0.0286946
799.204	0.0277709
799.338	0.0283251
799.473	0.0284483
799.607	0.0278941
799.742	0.0277709
799.876	0.028202
800.011	0.0282635
800.145	0.0284483
800.28	0.0276478
800.414	0.0278325
800.549	0.0282635
800.683	0.0277709
800.818	0.0280788
800.953	0.0279557
801.087	0.0280788
801.222	0.0286946
801.356	0.0282635
801.491	0.0272167
801.625	0.0277094
801.76	0.0284483
801.894	0.0276478
802.029	0.0282635
802.163	0.0283251
802.298	0.0284483
802.432	0.028202
802.567	0.0284483
802.701	0.0284483
802.836	0.0277094
802.97	0.0286946
803.105	0.0285099
803.239	0.0283867
803.374	0.028633
803.508	0.0293103
803.643	0.028633
803.777	0.0278941
803.912	0.0280172
804.046	0.0273399
804.181	0.0285099
804.315	0.028633
804.45	0.0281404
804.584	0.0287562
804.719	0.0296798
804.853	0.0283251
804.988	0.0293103
805.122	0.0281404
805.257	0.028202
805.391	0.0278941
805.526	0.029064
805.66	0.0283867
805.795	0.0290025
805.929	0.0284483
806.064	0.0296182
806.198	0.0295567
806.333	0.0284483
806.467	0.0292488
806.602	0.0283251
806.736	0.0283251
806.871	0.029064
807.005	0.0285099
807.14	0.0293103
807.274	0.0290025
807.409	0.0295567
807.543	0.0289409
807.678	0.0288177
807.812	0.0284483
807.947	0.0289409
808.081	0.0289409
808.216	0.0285714
808.35	0.0284483
808.485	0.0285714
808.619	0.0295567
808.754	0.0293103
808.888	0.0300493
809.023	0.0293103
809.157	0.0296182
809.292	0.0297414
809.426	0.0297414
809.561	0.0297414
809.695	0.0291872
809.83	0.0291256
809.964	0.0302956
810.099	0.0301724
810.233	0.0291872
810.368	0.0306034
810.502	0.030234
810.637	0.0310961
810.771	0.0312808
810.906	0.0313424
811.04	0.0317118
811.175	0.0319581
811.309	0.0326355
811.444	0.0323892
811.578	0.0329433
811.713	0.033436
811.847	0.0344828
811.982	0.0345443
812.116	0.0343596
812.251	0.0358374
812.385	0.0353448
812.519	0.0368227
812.654	0.0376847
812.788	0.0379926
812.923	0.0416256
813.057	0.0435345
813.192	0.046798
813.326	0.0509852
813.461	0.0652709
813.595	0.137254
813.73	0.399938
813.864	0.511207
813.999	0.360714
814.133	0.27149
814.268	0.484052
814.402	0.693596
814.537	1
814.671	0.985468
814.806	0.991256
814.94	0.965887
815.075	0.972414
815.209	0.807512
815.344	0.645813
815.478	0.721675
815.612	0.526108
815.747	0.429064
815.881	0.244458
816.016	0.235283
816.15	0.378879
816.285	0.417672
816.419	0.188116
816.554	0.0599754
816.688	0.0397783
816.823	0.035899
816.957	0.0342365
817.092	0.0356527
817.226	0.0333744
817.361	0.0320813
817.495	0.0319581
817.63	0.0324507
817.764	0.0322044
817.898	0.0310961
818.033	0.0312192
818.167	0.0312808
818.302	0.0313424
818.436	0.0305419
818.571	0.0304187
818.705	0.0299877
818.84	0.0304803
818.974	0.0293103
819.109	0.0291872
819.243	0.0293103
819.378	0.0299261
819.512	0.0292488
819.646	0.0296798
819.781	0.0296798
819.915	0.0285714
820.05	0.0286946
820.184	0.028633
820.319	0.0285099
820.453	0.0291256
820.588	0.0300493
820.722	0.0293103
820.857	0.0289409
820.991	0.0293719
821.126	0.0293103
821.26	0.0294951
821.394	0.0294951
821.529	0.0292488
821.663	0.028633
821.798	0.028202
821.932	0.0287562
822.067	0.0289409
822.201	0.0284483
822.336	0.0293719
822.47	0.0287562
822.605	0.0293103
822.739	0.0290025
822.873	0.029064
823.008	0.0290025
823.142	0.028202
823.277	0.0288177
823.411	0.0289409
823.546	0.0280788
823.68	0.0286946
823.815	0.0285714
823.949	0.0287562
824.083	0.0283251
824.218	0.0287562
824.352	0.0291872
824.487	0.0282635
824.621	0.0284483
824.756	0.0278941
824.89	0.0283867
825.025	0.0285714
825.159	0.028633
825.293	0.028202
825.428	0.0282635
825.562	0.0277709
825.697	0.0283251
825.831	0.029064
825.966	0.0281404
826.1	0.0288177
826.235	0.0277709
826.369	0.0280172
826.503	0.0283867
826.638	0.0280172
826.772	0.0279557
826.907	0.028202
827.041	0.0277094
827.176	0.0278941
827.31	0.0285099
827.445	0.0283251
827.579	0.0275862
827.713	0.0282635
827.848	0.0279557
827.982	0.0272167
828.117	0.0273399
828.251	0.028633
828.386	0.0280788
828.52	0.0278325
828.654	0.0285099
828.789	0.0280788
828.923	0.0285099
829.058	0.0279557
829.192	0.0277709
829.327	0.0283251
829.461	0.0283251
829.596	0.0286946
829.73	0.0288793
829.864	0.0272783
829.999	0.028202
830.133	0.0285099
830.268	0.0275862
830.402	0.028202
830.537	0.029064
830.671	0.0290025
830.805	0.0284483
830.94	0.0281404
831.074	0.0272783
831.209	0.0274631
831.343	0.0282635
831.478	0.0282635
831.612	0.0285714
831.746	0.028633
831.881	0.0272783
832.015	0.0274631
832.15	0.0282635
832.284	0.0278941
832.418	0.0286946
832.553	0.0275246
832.687	0.0280788
832.822	0.028633
832.956	0.0277709
833.091	0.0282635
833.225	0.0284483
833.359	0.0275246
833.494	0.0278325
833.628	0.0280172
833.763	0.0275246
833.897	0.0281404
834.032	0.0275862
834.166	0.0277709
834.3	0.0277094
834.435	0.0276478
834.569	0.0275246
834.704	0.0279557
834.838	0.0273399
834.972	0.0285099
835.107	0.0277094
835.241	0.0283867
835.376	0.0277709
835.51	0.0275862
835.645	0.0282635
835.779	0.0281404
835.913	0.0268473
836.048	0.0272167
836.182	0.0280788
836.317	0.0285714
836.451	0.0272167
836.585	0.0293103
836.72	0.0288177
836.854	0.0276478
836.989	0.0277094
837.123	0.0282635
837.257	0.029064
837.392	0.0280788
837.526	0.0280788
837.661	0.0275246
837.795	0.0283251
837.929	0.0286946
838.064	0.0286946
838.198	0.0280172
838.333	0.0279557
838.467	0.0274631
838.602	0.028633
838.736	0.0277709
838.87	0.0276478
839.005	0.0286946
839.139	0.0278941
839.274	0.0275862
839.408	0.0289409
839.542	0.0281404
839.677	0.0284483
839.811	0.0279557
839.946	0.0283867
840.08	0.0278325
840.214	0.0283867
840.349	0.0280788
840.483	0.0275862
840.618	0.0277709
840.752	0.028202
840.886	0.0279557
841.021	0.0285099
841.155	0.0270936
841.29	0.0281404
841.424	0.0286946
841.558	0.0280172
841.693	0.0281404
841.827	0.0283251
841.961	0.0285714
842.096	0.0281404
842.23	0.0280172
842.365	0.0286946
842.499	0.0271552
842.633	0.0278325
842.768	0.0277709
842.902	0.0276478
843.037	0.0280788
843.171	0.0285714
843.305	0.0271552
843.44	0.0278941
843.574	0.0280172
843.709	0.0280788
843.843	0.0275246
843.977	0.0282635
844.112	0.0283251
844.246	0.0278941
844.381	0.0283867
844.515	0.028202
844.649	0.0283867
844.784	0.0280172
844.918	0.0284483
845.052	0.0279557
845.187	0.0272783
845.321	0.0287562
845.456	0.0274015
845.59	0.0279557
845.724	0.0277709
845.859	0.0283867
845.993	0.0284483
846.128	0.0285714
846.262	0.0286946
846.396	0.0282635
846.531	0.0275246
846.665	0.0272167
846.799	0.0276478
846.934	0.0274631
847.068	0.0282635
847.203	0.0279557
847.337	0.0284483
847.471	0.0281404
847.606	0.0269089
847.74	0.0285099
847.874	0.0273399
848.009	0.0278325
848.143	0.0278941
848.278	0.0280172
848.412	0.0272783
848.546	0.0281404
848.681	0.027032
848.815	0.0284483
848.949	0.0277094
849.084	0.0291256
849.218	0.028202
849.353	0.0277094
849.487	0.0280172
849.621	0.0281404
849.756	0.0283867
849.89	0.0279557
850.024	0.0277094
850.159	0.0276478
850.293	0.028633
850.428	0.0283251
850.562	0.0286946
850.696	0.0278325
850.831	0.0285714
850.965	0.0291256
851.099	0.0277094
851.234	0.0284483
851.368	0.0275246
851.502	0.0288793
851.637	0.028202
851.771	0.0278325
851.906	0.0272783
852.04	0.0281404
852.174	0.0291256
852.309	0.029064
852.443	0.0278941
852.577	0.0283251
852.712	0.0283251
852.846	0.028202
852.98	0.0281404
853.115	0.0277094
853.249	0.0275862
853.384	0.0275246
853.518	0.027032
853.652	0.0282635
853.787	0.0272167
853.921	0.0282635
854.055	0.0280788
854.19	0.0276478
854.324	0.0279557
854.458	0.0281404
854.593	0.0276478
854.727	0.0279557
854.861	0.0279557
854.996	0.0276478
855.13	0.0277709
855.265	0.028633
855.399	0.0275862
855.533	0.0275246
855.668	0.0282635
855.802	0.0278325
855.936	0.0278325
856.071	0.0272783
856.205	0.0282635
856.339	0.0282635
856.474	0.0284483
856.608	0.028633
856.742	0.0272783
856.877	0.0278941
857.011	0.0278325
857.145	0.0274015
857.28	0.0291256
857.414	0.0274631
857.549	0.0274631
857.683	0.0277709
857.817	0.0284483
857.952	0.0284483
858.086	0.0274631
858.22	0.028202
858.355	0.0274015
858.489	0.0278325
858.623	0.0272167
858.758	0.0279557
858.892	0.0284483
859.026	0.0284483
859.161	0.0286946
859.295	0.0278941
859.429	0.0276478
859.564	0.0276478
859.698	0.0275246
859.832	0.0280788
859.967	0.0280172
860.101	0.0280172
860.235	0.0284483
860.37	0.0274015
860.504	0.0291256
860.638	0.0281404
860.773	0.0287562
860.907	0.0281404
861.041	0.0287562
861.176	0.0281404
861.31	0.0288177
861.444	0.0273399
861.579	0.0278941
861.713	0.0283867
861.847	0.0280172
861.982	0.0272167
862.116	0.0278325
862.25	0.028633
862.385	0.0267857
862.519	0.0280788
862.653	0.0274631
862.788	0.028202
862.922	0.0280788
863.056	0.0282635
863.191	0.0273399
863.325	0.0277094
863.459	0.0280788
863.594	0.0274631
863.728	0.0282635
863.862	0.0274631
863.997	0.0278941
864.131	0.028202
864.265	0.0273399
864.4	0.0273399
864.534	0.0282635
864.668	0.0272783
864.803	0.0281404
864.937	0.0288177
865.071	0.0276478
865.206	0.0275862
865.34	0.0275862
865.474	0.0283867
865.609	0.0272783
865.743	0.0283251
865.877	0.0279557
866.012	0.0278325
866.146	0.0277709
866.28	0.0272783
866.415	0.0283251
866.549	0.0280788
866.683	0.0278325
866.818	0.0280172
866.952	0.0283251
867.086	0.0280788
867.221	0.0293103
867.355	0.0280788
867.489	0.0278325
867.623	0.0288793
867.758	0.0275862
867.892	0.0275862
868.026	0.028202
868.161	0.028202
868.295	0.0277709
868.429	0.0269089
868.564	0.0282635
868.698	0.0274631
868.832	0.0284483
868.967	0.0285714
869.101	0.0283867
869.235	0.0269089
869.37	0.0277094
869.504	0.0270936
869.638	0.0277709
869.773	0.0279557
869.907	0.0274631
870.041	0.0276478
870.175	0.028633
870.31	0.0277094
870.444	0.0275862
870.578	0.0287562
870.713	0.0277094
870.847	0.0271552
870.981	0.0280788
871.116	0.0280788
871.25	0.0280788
871.384	0.0280788
871.519	0.0283251
871.653	0.0281404
871.787	0.0281404
871.921	0.0280172
872.056	0.0280172
872.19	0.0280788
872.324	0.0280172
872.459	0.0282635
872.593	0.0275246
872.727	0.028202
872.862	0.0285714
872.996	0.0278941
873.13	0.0275246
873.264	0.0283867
873.399	0.0278325
873.533	0.0282635
873.667	0.028633
873.802	0.0274631
873.936	0.0274631
874.07	0.0274631
874.205	0.0292488
874.339	0.028202
874.473	0.0275246
874.607	0.0272783
874.742	0.0279557
874.876	0.0278941
875.01	0.0279557
875.145	0.0274015
875.279	0.0280788
875.413	0.0277094
875.548	0.027032
875.682	0.0277094
875.816	0.0280172
875.95	0.028202
876.085	0.0276478
876.219	0.0282635
876.353	0.0289409
876.488	0.0283251
876.622	0.0269704
876.756	0.0285714
876.89	0.0290025
877.025	0.0272783
877.159	0.0283867
877.293	0.0277094
877.428	0.0281404
877.562	0.0272783
877.696	0.0282635
877.83	0.0274631
877.965	0.0278325
878.099	0.0283251
878.233	0.0280788
878.368	0.0277094
878.502	0.0279557
878.636	0.0280788
878.77	0.028202
878.905	0.0275246
879.039	0.0283251
879.173	0.0289409
879.308	0.0285714
879.442	0.0278941
879.576	0.0275862
879.71	0.0283867
879.845	0.028202
879.979	0.0280172
880.113	0.0279557
880.248	0.0281404
880.382	0.0277709
880.516	0.0289409
880.65	0.0283867
880.785	0.0285099
880.919	0.0275246
881.053	0.028202
881.188	0.0285099
881.322	0.0278941
881.456	0.0282635
881.59	0.0281404
881.725	0.0275246
881.859	0.0287562
881.993	0.0283251
882.127	0.0283251
882.262	0.0273399
882.396	0.0283867
882.53	0.0271552
882.665	0.0283251
882.799	0.0277094
882.933	0.0281404
883.067	0.0274015
883.202	0.0273399
883.336	0.0280172
883.47	0.0270936
883.604	0.0272167
883.739	0.0284483
883.873	0.028633
884.007	0.0277709
884.142	0.028633
884.276	0.0275246
884.41	0.0274015
884.544	0.0282635
884.679	0.0276478
884.813	0.0281404
884.947	0.0275862
885.081	0.0282635
885.216	0.0280172
885.35	0.0287562
885.484	0.0278941
885.618	0.0277094
885.753	0.0285099
885.887	0.0282635
886.021	0.0277709
886.155	0.0272167
886.29	0.0275246
886.424	0.0285714
886.558	0.0285714
886.693	0.0275862
886.827	0.0291872
886.961	0.0278325
887.095	0.0281404
887.23	0.0282635
887.364	0.0280172
887.498	0.0279557
887.632	0.028202
887.767	0.0285099
887.901	0.0284483
888.035	0.0272783
888.169	0.0271552
888.304	0.0284483
888.438	0.0274015
888.572	0.0275246
888.706	0.0275862
888.841	0.0280172
888.975	0.0280788
889.109	0.0280788
889.243	0.0284483
889.378	0.0283867
889.512	0.0278325
889.646	0.028202
889.78	0.0277709
889.915	0.0275862
890.049	0.0278325
890.183	0.028202
890.317	0.0278941
890.452	0.0284483
890.586	0.0283251
890.72	0.0272167
890.854	0.0276478
890.989	0.0272783
891.123	0.0277709
891.257	0.0274015
891.391	0.0277709
891.526	0.0280788
891.66	0.028202
891.794	0.0275246
891.928	0.0283251
892.063	0.0278325
892.197	0.0269704
892.331	0.0277709
892.465	0.0276478
892.6	0.0276478
892.734	0.0274015
892.868	0.0288177
893.002	0.0281404
893.137	0.0276478
893.271	0.0283251
893.405	0.0283251
893.539	0.0270936
893.674	0.0283251
893.808	0.0284483
893.942	0.0275862
894.076	0.0274015
894.21	0.0283867
894.345	0.0278941
894.479	0.0284483
894.613	0.0280788
894.747	0.0277094
894.882	0.0281404
895.016	0.0286946
895.15	0.0282635
895.284	0.0278325
895.419	0.0268473
895.553	0.0275862
895.687	0.0275246
895.821	0.0281404
895.956	0.0274631
896.09	0.0278325
896.224	0.0282635
896.358	0.0289409
896.492	0.0281404
896.627	0.0278941
896.761	0.0284483
896.895	0.0285099
897.029	0.0277094
897.164	0.0277709
897.298	0.0283251
897.432	0.0279557
897.566	0.0279557
897.701	0.028202
897.835	0.0277094
897.969	0.0282635
898.103	0.0285714
898.237	0.0274631
898.372	0.0279557
898.506	0.0271552
898.64	0.0277094
898.774	0.0282635
898.909	0.0273399
899.043	0.0274015
899.177	0.0283251
899.311	0.028633
899.445	0.0282635
899.58	0.0278325
899.714	0.0277094
899.848	0.0276478
899.982	0.0285099
900.117	0.028202
900.251	0.0277709
900.385	0.0278325
900.519	0.0285099
900.653	0.0279557
900.788	0.0279557
900.922	0.0281404
901.056	0.028202
901.19	0.0271552
901.325	0.028202
901.459	0.0280172
901.593	0.0275246
901.727	0.0275246
901.861	0.0272783
901.996	0.0283867
902.13	0.0272167
902.264	0.0290025
902.398	0.028633
902.532	0.0282635
902.667	0.0278941
902.801	0.0284483
902.935	0.026601
903.069	0.0278325
903.204	0.0272167
903.338	0.0283251
903.472	0.0276478
903.606	0.0285099
903.74	0.0283251
903.875	0.0280788
904.009	0.0285099
904.143	0.0277709
904.277	0.0290025
904.411	0.0289409
904.546	0.028633
904.68	0.0285099
904.814	0.0278325
904.948	0.0279557
905.082	0.0274631
905.217	0.0285714
905.351	0.0279557
905.485	0.0293103
905.619	0.0273399
905.753	0.0277094
905.888	0.0275246
906.022	0.0280788
906.156	0.0275862
906.29	0.0278325
906.424	0.0279557
906.559	0.0275862
906.693	0.0272783
906.827	0.0285714
906.961	0.0280172
907.095	0.0277709
907.23	0.0278325
907.364	0.028202
907.498	0.0279557
907.632	0.0286946
907.766	0.0280172
907.901	0.0280172
908.035	0.0279557
908.169	0.0282635
908.303	0.0285099
908.437	0.0277709
908.572	0.0275246
908.706	0.0277709
908.84	0.0285099
908.974	0.0274631
909.108	0.0283251
909.243	0.0271552
909.377	0.0274631
909.511	0.0275246
909.645	0.0279557
909.779	0.0278941
909.914	0.0276478
910.048	0.0283251
910.182	0.0272167
910.316	0.0278325
910.45	0.0280172
910.585	0.0285714
910.719	0.027032
910.853	0.0275862
910.987	0.0280788
911.121	0.0278325
911.255	0.0275862
911.39	0.0280788
911.524	0.0283251
911.658	0.0278941
911.792	0.0278941
911.926	0.0277094
912.061	0.0280172
912.195	0.0280788
912.329	0.0279557
912.463	0.028202
912.597	0.0283251
912.732	0.0280172
912.866	0.0269089
913	0.0278325
913.134	0.0285099
913.268	0.0269089
913.402	0.0274015
913.537	0.0288177
913.671	0.0281404
913.805	0.0280172
913.939	0.0274015
914.073	0.0280788
914.208	0.0274631
914.342	0.0284483
914.476	0.0278325
914.61	0.0287562
914.744	0.0283251
914.878	0.0290025
915.013	0.0279557
915.147	0.0278325
915.281	0.0278941
915.415	0.0282635
915.549	0.0271552
915.683	0.0274631
915.818	0.0278941
915.952	0.0272783
916.086	0.0276478
916.22	0.0277709
916.354	0.0286946
916.488	0.0277709
916.623	0.0284483
916.757	0.0283251
916.891	0.0280788
917.025	0.0275246
917.159	0.028202
917.293	0.0278941
917.428	0.0278325
917.562	0.029064
917.696	0.0280172
917.83	0.0277709
917.964	0.0272167
918.098	0.0284483
918.233	0.0287562
918.367	0.0273399
918.501	0.0280172
918.635	0.0287562
918.769	0.0280172
918.903	0.0278941
919.038	0.0281404
919.172	0.0283867
919.306	0.0282635
919.44	0.0284483
919.574	0.0287562
919.708	0.0278325
919.843	0.0274631
919.977	0.0283867
920.111	0.0278325
920.245	0.028202
920.379	0.0278941
920.513	0.0281404
920.648	0.0281404
920.782	0.0281404
920.916	0.0280172
921.05	0.0274015
921.184	0.0277094
921.318	0.0276478
921.453	0.0280172
921.587	0.0275246
921.721	0.0285099
921.855	0.0280172
921.989	0.0287562
922.123	0.0280788
922.257	0.0284483
922.392	0.0280172
922.526	0.0275862
922.66	0.0277094
922.794	0.0269704
922.928	0.0271552
923.062	0.0278325
923.197	0.028202
923.331	0.0274631
923.465	0.0285099
923.599	0.029064
923.733	0.0282635
923.867	0.0278325
924.001	0.0280172
924.136	0.0282635
924.27	0.0274015
924.404	0.0275862
924.538	0.028202
924.672	0.028202
924.806	0.0282635
924.94	0.0278325
925.075	0.0283251
925.209	0.0277094
925.343	0.0281404
925.477	0.0278325
925.611	0.0282635
925.745	0.0275246
925.879	0.0274631
926.014	0.0278941
926.148	0.0279557
926.282	0.0278941
926.416	0.0275246
926.55	0.0290025
926.684	0.0288793
926.818	0.0280788
926.953	0.0285714
927.087	0.028202
927.221	0.0277094
927.355	0.0277094
927.489	0.0273399
927.623	0.0277094
927.757	0.0278325
927.892	0.027032
928.026	0.0285099
928.16	0.0277094
928.294	0.0279557
928.428	0.0280788
928.562	0.0280172
928.696	0.0282635
928.831	0.0286946
928.965	0.0285099
929.099	0.0278325
929.233	0.0275862
929.367	0.0282635
929.501	0.0287562
929.635	0.0277094
929.769	0.0282635
929.904	0.0285714
930.038	0.0278941
930.172	0.0275862
930.306	0.0278325
930.44	0.0281404
930.574	0.028202
930.708	0.0274015
930.843	0.0271552
930.977	0.0284483
931.111	0.0284483
931.245	0.028202
931.379	0.0278325
931.513	0.0277094
931.647	0.0281404
931.781	0.0283867
931.916	0.0277709
932.05	0.0280172
932.184	0.0275862
932.318	0.0277709
932.452	0.0277709
932.586	0.029064
932.72	0.0279557
932.854	0.0278941
932.989	0.0284483
933.123	0.0281404
933.257	0.0275246
933.391	0.028202
933.525	0.0285714
933.659	0.0285099
933.793	0.0277094
933.927	0.0284483
934.061	0.0281404
934.196	0.0278325
934.33	0.0276478
934.464	0.0283251
934.598	0.0285099
934.732	0.0282635
934.866	0.0272167
935	0.0277709
935.134	0.0275246
935.269	0.0277709
935.403	0.0283867
935.537	0.0275246
935.671	0.0278325
935.805	0.0285099
935.939	0.0278941
936.073	0.0279557
936.207	0.0281404
936.341	0.0274631
936.476	0.0275862
936.61	0.0272167
936.744	0.0277094
936.878	0.0278325
937.012	0.0280788
937.146	0.0279557
937.28	0.0275246
937.414	0.0274015
937.548	0.0277709
937.683	0.0278325
937.817	0.0272167
937.951	0.027032
938.085	0.0276478
938.219	0.0288793
938.353	0.027032
938.487	0.0274631
938.621	0.0276478
938.755	0.0279557
938.889	0.0270936
939.024	0.0279557
939.158	0.0277709
939.292	0.0275246
939.426	0.028202
939.56	0.0281404
939.694	0.0283251
939.828	0.0287562
939.962	0.0279557
940.096	0.0271552
940.231	0.0277709
940.365	0.0283867
940.499	0.0292488
940.633	0.0273399
940.767	0.0284483
940.901	0.0277094
941.035	0.0288177
941.169	0.0278325
941.303	0.0278325
941.437	0.028202
941.571	0.0284483
941.706	0.0273399
941.84	0.0279557
941.974	0.028633
942.108	0.0275246
942.242	0.0272783
942.376	0.0278325
942.51	0.028202
942.644	0.0278941
942.778	0.0277709
942.912	0.0289409
943.047	0.0275246
943.181	0.0280788
943.315	0.0278941
943.449	0.0274015
943.583	0.0282635
943.717	0.0282635
943.851	0.0282635
943.985	0.0283867
944.119	0.0271552
944.253	0.0275862
944.387	0.0281404
944.522	0.0272167
944.656	0.0291256
944.79	0.0272167
944.924	0.028633
945.058	0.0278941
945.192	0.0282635
945.326	0.0282635
945.46	0.0277709
945.594	0.0274015
945.728	0.0284483
945.862	0.0292488
945.996	0.0284483
946.131	0.0283867
946.265	0.0280172
946.399	0.0282635
946.533	0.0284483
946.667	0.028202
946.801	0.0283251
946.935	0.0272167
947.069	0.0277094
947.203	0.0283251
947.337	0.0271552
947.471	0.0282635
947.605	0.0280172
947.739	0.0273399
947.874	0.0284483
948.008	0.0288177
948.142	0.0289409
948.276	0.0291256
948.41	0.0284483
948.544	0.0280172
948.678	0.0280788
948.812	0.0270936
948.946	0.0292488
949.08	0.0283251
949.214	0.0272167
949.348	0.028202
949.482	0.0283251
949.617	0.0279557
949.751	0.0281404
949.885	0.0275246
950.019	0.0280788
950.153	0.0275246
950.287	0.0280172
950.421	0.0274631
950.555	0.028633
950.689	0.0271552
950.823	0.0280788
950.957	0.0279557
951.091	0.027032
951.225	0.0271552
951.359	0.0283251
951.493	0.0283251
951.628	0.0283251
951.762	0.028633
951.896	0.0281404
952.03	0.0278325
952.164	0.0277709
952.298	0.0278325
952.432	0.0282635
952.566	0.0278941
952.7	0.0280172
952.834	0.028202
952.968	0.028202
953.102	0.0278941
953.236	0.0283867
953.37	0.0285714
953.504	0.0279557
953.639	0.0272167
953.773	0.0277094
953.907	0.0273399
954.041	0.0271552
954.175	0.0271552
954.309	0.0277709
954.443	0.0275246
954.577	0.0271552
954.711	0.0283867
954.845	0.0283867
954.979	0.0272783
955.113	0.0284483
955.247	0.0277709
955.381	0.0278941
955.515	0.0280172
955.649	0.0283867
955.783	0.0278941
955.917	0.0276478
956.052	0.0272783
956.186	0.0280788
956.32	0.0285099
956.454	0.0277709
956.588	0.0275862
956.722	0.0283251
956.856	0.0272167
956.99	0.0287562
957.124	0.0286946
957.258	0.028202
957.392	0.0283867
957.526	0.0282635
957.66	0.0284483
957.794	0.0277094
957.928	0.0279557
958.062	0.0278325
958.196	0.0274015
958.33	0.0273399
958.464	0.0275862
958.598	0.0278325
958.733	0.0274631
958.867	0.0288177
959.001	0.0280172
959.135	0.0282635
959.269	0.0280788
959.403	0.0278941
959.537	0.0284483
959.671	0.0288793
959.805	0.0280172
959.939	0.0283867
960.073	0.0281404
960.207	0.0284483
960.341	0.0280788
960.475	0.0278941
960.609	0.0281404
960.743	0.0281404
960.877	0.0284483
961.011	0.0272167
961.145	0.0285714
961.279	0.0286946
961.413	0.0274015
961.547	0.0276478
961.681	0.028633
961.815	0.0275862
961.949	0.0274631
962.083	0.0277709
962.218	0.0287562
962.352	0.0274631
962.486	0.0279557
962.62	0.0277709
962.754	0.0277094
962.888	0.0282635
963.022	0.0278941
963.156	0.0280172
963.29	0.0278325
963.424	0.0277709
963.558	0.0277709
963.692	0.0280788
963.826	0.0283251
963.96	0.0275862
964.094	0.0274015
964.228	0.0279557
964.362	0.0280172
964.496	0.0277094
964.63	0.0283251
964.764	0.0274015
964.898	0.0282635
965.032	0.0283251
965.166	0.0278941
965.3	0.0283251
965.434	0.0277094
965.568	0.0282635
965.702	0.0278325
965.836	0.0277709
965.97	0.0283251
966.104	0.028202
966.238	0.0268473
966.372	0.028633
966.506	0.0280172
966.64	0.0281404
966.774	0.0281404
966.908	0.0278941
967.043	0.0274631
967.177	0.0276478
967.311	0.0277094
967.445	0.0280172
967.579	0.0284483
967.713	0.0283251
967.847	0.0274631
967.981	0.0286946
968.115	0.0282635
968.249	0.0283251
968.383	0.0283251
968.517	0.0278325
968.651	0.0282635
968.785	0.0283867
968.919	0.0275862
969.053	0.0280172
969.187	0.0281404
969.321	0.0277094
969.455	0.0279557
969.589	0.028202
969.723	0.0275246
969.857	0.0277094
969.991	0.0288793
970.125	0.0274015
970.259	0.0278325
970.393	0.0282635
970.527	0.029064
970.661	0.0280172
970.795	0.0281404
970.929	0.0271552
971.063	0.0274631
971.197	0.0283251
971.331	0.0287562
971.465	0.0275862
971.599	0.0276478
971.733	0.0288177
971.867	0.0277094
972.001	0.0279557
972.135	0.0285099
972.269	0.0286946
972.403	0.0276478
972.537	0.0281404
972.671	0.0280172
972.805	0.0283251
972.939	0.0285099
973.073	0.0272783
973.207	0.0280788
973.341	0.0282635
973.475	0.0283251
973.609	0.0274631
973.743	0.0286946
973.877	0.0285099
974.011	0.0277709
974.145	0.0280788
974.279	0.0283251
974.413	0.0280788
974.547	0.0277709
974.681	0.0270936
974.815	0.0277094
974.949	0.0277709
975.083	0.0284483
975.217	0.0286946
975.351	0.0275246
975.485	0.0288793
975.619	0.0275246
975.753	0.0282635
975.887	0.0279557
976.021	0.0281404
976.155	0.0276478
976.289	0.0280172
976.423	0.0274631
976.557	0.028633
976.691	0.0276478
976.825	0.0272783
976.959	0.0277709
977.093	0.0290025
977.227	0.0280788
977.361	0.0275246
977.495	0.0280788
977.629	0.028633
977.763	0.0284483
977.897	0.0273399
978.031	0.0280788
978.165	0.0283251
978.299	0.0284483
978.433	0.0292488
978.567	0.0273399
978.701	0.0277094
978.835	0.0275862
978.969	0.0275862
979.103	0.0274631
979.237	0.0282635
979.371	0.0289409
979.505	0.0277709
979.639	0.0276478
979.773	0.0274631
979.907	0.0271552
980.041	0.0280788
980.175	0.0282635
980.308	0.0279557
980.442	0.0278941
980.576	0.028202
980.71	0.0284483
980.844	0.0284483
980.978	0.0280172
981.112	0.0288793
981.246	0.028202
981.38	0.0280788
981.514	0.0279557
981.648	0.0272167
981.782	0.0275246
981.916	0.0275862
982.05	0.0283867
982.184	0.0276478
982.318	0.0279557
982.452	0.0282635
982.586	0.0272783
982.72	0.0272783
982.854	0.0278941
982.988	0.0284483
983.122	0.0275862
983.256	0.028202
983.39	0.0279557
983.524	0.0282635
983.658	0.0274631
983.792	0.028633
983.926	0.0279557
984.06	0.0280788
984.194	0.028202
984.328	0.0282635
984.462	0.0282635
984.596	0.0283867
984.73	0.0280172
984.864	0.027032
984.998	0.0277709
985.132	0.0278325
985.265	0.0285099
985.399	0.0275862
985.533	0.0277709
985.667	0.0278325
985.801	0.0274631
985.935	0.0278941
986.069	0.0286946
986.203	0.0276478
986.337	0.0280788
986.471	0.0275862
986.605	0.0272783
986.739	0.028633
986.873	0.0281404
987.007	0.0277094
987.141	0.0282635
987.275	0.0278941
987.409	0.0272783
987.543	0.0282635
987.677	0.0284483
987.811	0.0280172
987.945	0.0278325
988.079	0.0287562
988.213	0.0280172
988.347	0.0287562
988.481	0.0274631
988.614	0.0284483
988.748	0.0283251
988.882	0.028202
989.016	0.028633
989.15	0.0278941
989.284	0.0286946
989.418	0.0283867
989.552	0.0289409
989.686	0.0280172
989.82	0.0276478
989.954	0.0287562
990.088	0.0278941
990.222	0.0285099
990.356	0.0284483
990.49	0.0276478
990.624	0.029064
990.758	0.0272167
990.892	0.0275246
991.026	0.0269704
991.16	0.0285714
991.294	0.028633
991.427	0.0278941
991.561	0.0275862
991.695	0.0284483
991.829	0.0272167
991.963	0.0282635
992.097	0.0285714
992.231	0.0270936
992.365	0.0279557
992.499	0.0275862
992.633	0.0272167
992.767	0.0271552
992.901	0.028633
993.035	0.0277094
993.169	0.0282635
993.303	0.0267857
993.437	0.0273399
993.571	0.0286946
993.704	0.0280788
993.838	0.028202
993.972	0.0282635
994.106	0.0276478
994.24	0.0288177
994.374	0.028202
994.508	0.0280788
994.642	0.0287562
994.776	0.0282635
994.91	0.0283867
995.044	0.0274631
995.178	0.0275246
995.312	0.0284483
995.446	0.0281404
995.58	0.027032
995.714	0.0284483
995.847	0.0283867
995.981	0.0272783
996.115	0.028202
996.249	0.0287562
996.383	0.0280788
996.517	0.0277709
996.651	0.0278941
996.785	0.0278325
996.919	0.0277709
997.053	0.0270936
997.187	0.0280172
997.321	0.0274631
997.455	0.0281404
997.589	0.0279557
997.722	0.0282635
997.856	0.028633
997.99	0.0277709
998.124	0.0275862
998.258	0.0275862
998.392	0.0277709
998.526	0.0281404
998.66	0.027032
998.794	0.0285714
998.928	0.0287562
999.062	0.0280172
999.196	0.028202
999.33	0.0274631
999.464	0.0277094
999.597	0.0283867
999.731	0.0274015
999.865	0.0279557
999.999	0.0282635
1000.13	0.0285714
1000.27	0.028633
1000.4	0.0281404
1000.53	0.0280172
1000.67	0.0272783
1000.8	0.0277094
1000.94	0.0276478
1001.07	0.0278325
1001.2	0.0279557
1001.34	0.0267857
1001.47	0.0281404
1001.61	0.0278325
1001.74	0.0277094
1001.87	0.0279557
1002.01	0.0278325
1002.14	0.0282635
1002.28	0.0278941
1002.41	0.0286946
1002.54	0.0278325
1002.68	0.027032
1002.81	0.0280172
1002.95	0.0287562
1003.08	0.0279557
1003.21	0.0277709
1003.35	0.0277709
1003.48	0.0274631
1003.61	0.0280788
1003.75	0.0277709
1003.88	0.0280788
1004.02	0.0284483
1004.15	0.0279557
1004.28	0.0276478
1004.42	0.0276478
1004.55	0.0277709
1004.69	0.0278325
1004.82	0.0295567
1004.95	0.0278941
1005.09	0.0277094
1005.22	0.0285099
1005.36	0.0286946
1005.49	0.0280172
1005.62	0.0277709
1005.76	0.0288177
1005.89	0.0277094
1006.03	0.0272167
1006.16	0.0274631
1006.29	0.0275862
1006.43	0.0277094
1006.56	0.0289409
1006.69	0.0283867
1006.83	0.0273399
1006.96	0.0280172
1007.1	0.0283867
1007.23	0.0283867
1007.36	0.0279557
1007.5	0.0276478
1007.63	0.0285099
1007.77	0.0280172
1007.9	0.0281404
1008.03	0.027032
1008.17	0.0277709
1008.3	0.0283867
1008.44	0.0285714
1008.57	0.028202
1008.7	0.028202
1008.84	0.0275246
1008.97	0.0288793
1009.1	0.0280172
1009.24	0.0277094
1009.37	0.0278325
1009.51	0.0272167
1009.64	0.0272783
1009.77	0.0277094
1009.91	0.0273399
1010.04	0.0273399
1010.18	0.0277709
1010.31	0.0277709
1010.44	0.0279557
1010.58	0.0284483
1010.71	0.0272783
1010.85	0.0284483
1010.98	0.0281404
1011.11	0.0280788
1011.25	0.0277709
1011.38	0.0280172
1011.51	0.0276478
1011.65	0.0274631
1011.78	0.0285714
1011.92	0.0284483
1012.05	0.0276478
1012.18	0.0283867
1012.32	0.0285099
1012.45	0.0280172
1012.59	0.0285099
1012.72	0.0281404
1012.85	0.0280788
1012.99	0.0274631
1013.12	0.0278941
1013.26	0.0286946
1013.39	0.0277094
1013.52	0.028202
1013.66	0.0288793
1013.79	0.0278325
1013.92	0.0281404
1014.06	0.0274015
1014.19	0.0278941
1014.33	0.0277709
1014.46	0.0278325
1014.59	0.0281404
1014.73	0.028202
1014.86	0.0280788
1015	0.0275862
1015.13	0.028202
1015.26	0.0281404
1015.4	0.0274631
1015.53	0.0277709
1015.67	0.0279557
1015.8	0.0274631
1015.93	0.028202
1016.07	0.0279557
1016.2	0.0285099
1016.33	0.0283251
1016.47	0.0284483
1016.6	0.0279557
1016.74	0.0285714
1016.87	0.0283867
1017	0.0285714
1017.14	0.0277709
1017.27	0.0277709
1017.41	0.0280172
1017.54	0.0272167
1017.67	0.0280788
1017.81	0.0279557
1017.94	0.0275862
1018.07	0.0281404
1018.21	0.0286946
1018.34	0.0278325
1018.48	0.0280788
1018.61	0.0282635
1018.74	0.0275862
1018.88	0.0278941
1019.01	0.0274015
1019.15	0.0280172
1019.28	0.028202
1019.41	0.0284483
1019.55	0.0267857
1019.68	0.0284483
1019.82	0.028202
1019.95	0.0276478
1020.08	0.0278325
1020.22	0.0280788
1020.35	0.0280172
1020.48	0.0273399
1020.62	0.0278941
1020.75	0.0273399
1020.89	0.0274631
1021.02	0.0285099
1021.15	0.0283867
1021.29	0.0288177
1021.42	0.0280788
1021.56	0.0280788
1021.69	0.0280172
1021.82	0.0280172
1021.96	0.0276478
1022.09	0.0278941
1022.22	0.0279557
1022.36	0.0279557
1022.49	0.0280788
1022.63	0.0280172
1022.76	0.028633
1022.89	0.0280172
1023.03	0.0282635
1023.16	0.0278325
1023.3	0.0281404
1023.43	0.0276478
1023.56	0.0278325
1023.7	0.0284483
1023.83	0.0277709
1023.96	0.0277094
1024.1	0.0278941
1024.23	0.0281404
1024.37	0.028202
1024.5	0.0291872
1024.63	0.0275862
1024.77	0.028202
1024.9	0.0273399
1025.04	0.0276478
1025.17	0.0272783
1025.3	0.028633
1025.44	0.0280172
1025.57	0.0291256
1025.7	0.0294335
1025.84	0.028202
1025.97	0.0280788
1026.11	0.0282635
1026.24	0.0279557
1026.37	0.0291872
1026.51	0.0284483
1026.64	0.0278941
1026.78	0.0280788
1026.91	0.0274631
1027.04	0.0281404
1027.18	0.0276478
1027.31	0.0284483
1027.44	0.0283251
1027.58	0.0280788
1027.71	0.0274631
1027.85	0.0283251
1027.98	0.0280172
1028.11	0.0275862
1028.25	0.0283867
1028.38	0.0277709
1028.52	0.0279557
1028.65	0.0277094
1028.78	0.0290025
1028.92	0.0278941
1029.05	0.0274015
1029.18	0.0277709
1029.32	0.0283251
1029.45	0.029064
1029.59	0.0282635
1029.72	0.0273399
1029.85	0.0281404
1029.99	0.0280172
1030.12	0.0279557
1030.26	0.0278325
1030.39	0.028633
1030.52	0.0276478
1030.66	0.0280172
1030.79	0.0283867
1030.92	0.0277094
1031.06	0.0277709
1031.19	0.0279557
1031.33	0.0278325
1031.46	0.0264163
1031.59	0.0277094
1031.73	0.028202
1031.86	0.0280172
1031.99	0.0275862
1032.13	0.0278325
1032.26	0.0282635
1032.4	0.0278325
1032.53	0.0280788
1032.66	0.0281404
1032.8	0.0284483
1032.93	0.0282635
1033.07	0.0282635
1033.2	0.0280788
1033.33	0.0280172
1033.47	0.0272783
1033.6	0.0282635
1033.73	0.0280788
1033.87	0.0274015
1034	0.0279557
1034.14	0.0278325
1034.27	0.0278941
1034.4	0.028202
1034.54	0.0277094
1034.67	0.0282635
1034.81	0.0283867
1034.94	0.0285099
1035.07	0.0278941
1035.21	0.0280172
1035.34	0.0285099
1035.47	0.0276478
1035.61	0.0280788
1035.74	0.0277709
1035.88	0.0272167
1036.01	0.0277094
1036.14	0.0289409
1036.28	0.0280788
1036.41	0.0280788
1036.54	0.0275246
1036.68	0.028202
1036.81	0.0274631
1036.95	0.0276478
1037.08	0.029064
1037.21	0.0280788
1037.35	0.0282635
1037.48	0.0277094
1037.62	0.0280788
1037.75	0.0273399
1037.88	0.0278325
1038.02	0.0277094
1038.15	0.0293103
1038.28	0.027032
1038.42	0.0278941
1038.55	0.0280172
1038.69	0.0274631
1038.82	0.0281404
1038.95	0.0277094
1039.09	0.0284483
1039.22	0.0284483
1039.35	0.0283251
1039.49	0.0279557
1039.62	0.0281404
1039.76	0.0282635
1039.89	0.0282635
1040.02	0.0276478
1040.16	0.0278325
1040.29	0.0282635
1040.43	0.0280788
1040.56	0.028202
1040.69	0.0277709
1040.83	0.0278325
1040.96	0.0284483
1041.09	0.0278941
1041.23	0.0285099
1041.36	0.0281404
1041.5	0.0278941
1041.63	0.0286946
1041.76	0.0274631
1041.9	0.0278325
1042.03	0.0282635
1042.16	0.0276478
1042.3	0.0280172
1042.43	0.028202
1042.57	0.0274631
1042.7	0.0280172
1042.83	0.0285714
1042.97	0.0271552
1043.1	0.0289409
1043.23	0.0277094
1043.37	0.0279557
1043.5	0.0276478
1043.64	0.0276478
1043.77	0.0278325
1043.9	0.028202
1044.04	0.0280788
1044.17	0.0276478
1044.31	0.0283867
1044.44	0.0280788
1044.57	0.0271552
1044.71	0.0280788
1044.84	0.0275862
1044.97	0.0287562
1045.11	0.0278325
1045.24	0.0278941
1045.38	0.0277094
1045.51	0.0274015
1045.64	0.0282635
1045.78	0.0277709
1045.91	0.0287562
1046.04	0.0278941
1046.18	0.0277709
1046.31	0.0279557
1046.45	0.0269704
1046.58	0.0286946
1046.71	0.0281404
1046.85	0.0274015
1046.98	0.028202
1047.11	0.0279557
1047.25	0.0280788
1047.38	0.0275246
1047.52	0.0277094
1047.65	0.0282635
1047.78	0.0278941
1047.92	0.0278325
1048.05	0.0280172
1048.18	0.0278941
1048.32	0.0289409
1048.45	0.0280788
1048.59	0.0283867
1048.72	0.0285714
1048.85	0.0283251
1048.99	0.0288793
1049.12	0.0285099
1049.25	0.0287562
1049.39	0.0278325
1049.52	0.0275862
1049.66	0.0280788
1049.79	0.0285099
1049.92	0.0267857
1050.06	0.028202
1050.19	0.0269704
1050.33	0.0275246
1050.46	0.0280172
1050.59	0.0280172
1050.73	0.0274015
1050.86	0.028202
1050.99	0.0286946
1051.13	0.0275246
1051.26	0.0276478
1051.4	0.028202
1051.53	0.0285099
1051.66	0.0282635
1051.8	0.0279557
1051.93	0.0280172
1052.06	0.027032
1052.2	0.0283867
1052.33	0.0274015
1052.47	0.0278325
1052.6	0.0280172
1052.73	0.028202
1052.87	0.0273399
1053	0.0281404
1053.13	0.0282635
1053.27	0.0275246
1053.4	0.0280788
1053.54	0.0275862
1053.67	0.0283867
1053.8	0.0281404
1053.94	0.0270936
1054.07	0.0272783
1054.2	0.0280788
1054.34	0.0288793
1054.47	0.0278325
1054.61	0.0280172
1054.74	0.0278325
1054.87	0.0276478
1055.01	0.0284483
1055.14	0.0283251
1055.27	0.0278941
1055.41	0.0277094
1055.54	0.0279557
1055.68	0.0278941
1055.81	0.0274015
1055.94	0.0285714
1056.08	0.0280172
1056.21	0.0270936
1056.34	0.0282635
1056.48	0.0289409
1056.61	0.0284483
1056.75	0.0289409
1056.88	0.0275246
1057.01	0.0278941
1057.15	0.0278941
1057.28	0.0283251
1057.41	0.0274015
1057.55	0.0278325
1057.68	0.0277094
1057.82	0.0274015
1057.95	0.0283251
1058.08	0.0272167
1058.22	0.028633
1058.35	0.0278325
1058.48	0.028202
1058.62	0.0289409
1058.75	0.0278325
1058.89	0.0273399
1059.02	0.028633
1059.15	0.0281404
1059.29	0.0279557
1059.42	0.028633
1059.55	0.0285099
1059.69	0.0285099
1059.82	0.0275246
1059.96	0.0285714
1060.09	0.028202
1060.22	0.0280172
1060.36	0.0277709
1060.49	0.0276478
1060.62	0.0279557
1060.76	0.0288177
1060.89	0.0287562
1061.03	0.0283251
1061.16	0.0281404
1061.29	0.0278325
1061.43	0.0278941
1061.56	0.0277094
1061.69	0.0278941
1061.83	0.0271552
1061.96	0.0280172
1062.1	0.0274015
1062.23	0.0279557
1062.36	0.0274631
1062.5	0.0286946
1062.63	0.0290025
1062.76	0.0280172
1062.9	0.0267241
1063.03	0.0272783
1063.17	0.0279557
1063.3	0.0280172
1063.43	0.0281404
1063.57	0.0278941
1063.7	0.0283867
1063.83	0.0275862
1063.97	0.0283251
1064.1	0.0275862
1064.23	0.0285714
1064.37	0.0280172
1064.5	0.0288177
1064.64	0.0283867
1064.77	0.0285099
1064.9	0.0279557
1065.04	0.0280788
1065.17	0.028633
1065.3	0.0278941
1065.44	0.0278325
1065.57	0.0292488
1065.71	0.0284483
1065.84	0.0284483
1065.97	0.028202
1066.11	0.0277709
1066.24	0.0276478
1066.37	0.0287562
1066.51	0.0268473
1066.64	0.0284483
1066.78	0.0283867
1066.91	0.026601
1067.04	0.0280172
1067.18	0.0274015
1067.31	0.0283867
1067.44	0.0270936
1067.58	0.0277709
1067.71	0.0279557
1067.85	0.0279557
1067.98	0.0275246
1068.11	0.0275862
1068.25	0.0274015
1068.38	0.0280788
1068.51	0.0272167
1068.65	0.0279557
1068.78	0.0275246
1068.92	0.0270936
1069.05	0.0274631
1069.18	0.0283251
1069.32	0.0282635
1069.45	0.0277709
1069.58	0.0279557
1069.72	0.0278325
1069.85	0.0280788
1069.98	0.0277709
1070.12	0.0281404
1070.25	0.0277709
1070.39	0.0274631
1070.52	0.0283251
1070.65	0.0275862
1070.79	0.028202
1070.92	0.0275862
1071.05	0.0275862
1071.19	0.0275862
1071.32	0.0283251
1071.46	0.0275246
1071.59	0.0278941
1071.72	0.0281404
1071.86	0.0284483
1071.99	0.0280788
1072.12	0.0282635
1072.26	0.0278941
1072.39	0.0288177
1072.53	0.0279557
1072.66	0.0283867
1072.79	0.027032
1072.93	0.0289409
1073.06	0.0285714
1073.19	0.0277094
1073.33	0.0273399
1073.46	0.0282635
1073.59	0.0274631
1073.73	0.0280172
1073.86	0.0288177
1074	0.0282635
1074.13	0.0280172
1074.26	0.0282635
1074.4	0.0279557
1074.53	0.0282635
1074.66	0.0279557
1074.8	0.0282635
1074.93	0.0280788
1075.07	0.0288177
1075.2	0.0278325
1075.33	0.0282635
1075.47	0.0279557
1075.6	0.0272167
1075.73	0.0285099
1075.87	0.0284483
1076	0.0292488
1076.14	0.0280788
1076.27	0.0277094
1076.4	0.0282635
1076.54	0.0278325
1076.67	0.0274631
1076.8	0.0280172
1076.94	0.028202
1077.07	0.0278325
1077.2	0.0279557
1077.34	0.0283867
1077.47	0.0280172
1077.61	0.028202
1077.74	0.0278325
1077.87	0.0283867
1078.01	0.0280172
1078.14	0.0278325
1078.27	0.0285099
1078.41	0.0279557
1078.54	0.0280172
1078.68	0.0277709
1078.81	0.0278325
1078.94	0.0281404
1079.08	0.0285099
1079.21	0.0271552
1079.34	0.0282635
1079.48	0.0273399
1079.61	0.0279557
1079.74	0.0275862
1079.88	0.0281404
1080.01	0.0274631
1080.15	0.0286946
1080.28	0.0280788
1080.41	0.0272783
1080.55	0.0271552
1080.68	0.0278941
1080.81	0.0280788
1080.95	0.0277709
1081.08	0.0272783
1081.22	0.0289409
1081.35	0.0275862
1081.48	0.0283251
1081.62	0.0280788
1081.75	0.0284483
1081.88	0.0282635
1082.02	0.0286946
1082.15	0.0287562
1082.28	0.0277094
1082.42	0.0285099
1082.55	0.0277094
1082.69	0.0274631
1082.82	0.0278941
1082.95	0.0277709
1083.09	0.029064
1083.22	0.0275246
1083.35	0.0280172
1083.49	0.0277094
1083.62	0.0285714
1083.75	0.0288177
1083.89	0.0285099
1084.02	0.0287562
1084.16	0.0273399
1084.29	0.0280172
1084.42	0.0275862
1084.56	0.0277709
1084.69	0.0278325
1084.82	0.0281404
1084.96	0.0280788
1085.09	0.0286946
1085.23	0.0281404
1085.36	0.0280172
1085.49	0.0277094
1085.63	0.0285099
1085.76	0.0278941
1085.89	0.0274631
1086.03	0.0274015
1086.16	0.0284483
1086.29	0.0282635
1086.43	0.0275246
1086.56	0.0285714
1086.7	0.0275246
1086.83	0.0274631
1086.96	0.0282635
1087.1	0.0280788
1087.23	0.0275246
1087.36	0.0285099
1087.5	0.0274015
1087.63	0.0273399
1087.76	0.0280172
1087.9	0.0270936
1088.03	0.0283251
1088.17	0.0289409
1088.3	0.0278325
1088.43	0.0285714
1088.57	0.0285099
1088.7	0.0285099
1088.83	0.0271552
1088.97	0.0281404
1089.1	0.0277709
1089.24	0.0281404
1089.37	0.0274631
1089.5	0.0286946
1089.64	0.0278941
1089.77	0.0277094
1089.9	0.028202
1090.04	0.028202
1090.17	0.0274631
1090.3	0.0269704
1090.44	0.0277094
1090.57	0.0275246
1090.71	0.0281404
1090.84	0.0276478
1090.97	0.0279557
1091.11	0.0275246
1091.24	0.0284483
1091.37	0.0282635
1091.51	0.0277709
1091.64	0.0277709
1091.77	0.0280172
1091.91	0.0283251
1092.04	0.0275246
1092.18	0.0281404
1092.31	0.0274631
1092.44	0.0275862
1092.58	0.0274015
1092.71	0.0279557
1092.84	0.0277709
1092.98	0.0269089
1093.11	0.0283251
1093.24	0.0277709
1093.38	0.0273399
1093.51	0.0278325
1093.65	0.0275862
1093.78	0.0288793
1093.91	0.0277709
1094.05	0.0284483
1094.18	0.0276478
1094.31	0.0288793
1094.45	0.0278941
1094.58	0.0280172
1094.71	0.0285714
1094.85	0.0281404
1094.98	0.0279557
1095.12	0.0278325
1095.25	0.0279557
1095.38	0.0280788
1095.52	0.0279557
1095.65	0.0280788
1095.78	0.0286946
1095.92	0.0282635
1096.05	0.0283251
1096.18	0.0286946
1096.32	0.0278941
1096.45	0.0280788
1096.59	0.0283867
1096.72	0.0283867
1096.85	0.0285099
1096.99	0.0284483
1097.12	0.0276478
1097.25	0.0279557
1097.39	0.0272167
1097.52	0.0277709
1097.65	0.0282635
1097.79	0.0277709
1097.92	0.0277709
1098.06	0.0282635
1098.19	0.0280788
1098.32	0.0276478
1098.46	0.0286946
1098.59	0.0284483
1098.72	0.0275862
1098.86	0.0276478
1098.99	0.0281404
1099.12	0.0274631
1099.26	0.0275862
1099.39	0.0279557
1099.53	0.0270936
1099.66	0.0276478
1099.79	0.0283867
1099.93	0.0278941
1100.06	0.0279557
1100.19	0.0274631
1100.33	0.0282635
1100.46	0.0275862
1100.59	0.0275862
1100.73	0.0283251
1100.86	0.0267241
1100.99	0.028202
1101.13	0.0283867
1101.26	0.0287562
1101.4	0.0277709
1101.53	0.0269704
1101.66	0.0281404
1101.8	0.027032
1101.93	0.0275862
1102.06	0.0283867
1102.2	0.0276478
1102.33	0.0278941
1102.46	0.028633
1102.6	0.0284483
1102.73	0.0282635
1102.87	0.0278325
1103	0.0278941
1103.13	0.0278325
1103.27	0.028633
1103.4	0.0282635
1103.53	0.028202
1103.67	0.028633
1103.8	0.0277094
1103.93	0.0280788
1104.07	0.0288177
1104.2	0.028633
1104.34	0.0279557
1104.47	0.0278941
1104.6	0.0280788
1104.74	0.0283251
1104.87	0.0281404
1105	0.0283867
1105.14	0.0276478
1105.27	0.0272167
1105.4	0.028633
1105.54	0.0285714
1105.67	0.0284483
1105.8	0.0287562
1105.94	0.028202
1106.07	0.0281404
1106.21	0.0275246
1106.34	0.0284483
1106.47	0.028202
1106.61	0.0272167
1106.74	0.0280172
1106.87	0.0285714
1107.01	0.0281404
1107.14	0.0283251
1107.27	0.0274631
1107.41	0.0278941
1107.54	0.0283867

