Source: Spectrum Viewer

Chart: Pulse Spectrum

Series: 
Wavelength (nm)	S (a.u.)
617.638	0.0276588
617.773	0.0282095
617.908	0.0278424
618.043	0.0272916
618.178	0.0271693
618.313	0.0284543
618.448	0.0284543
618.583	0.0282095
618.718	0.0285767
618.853	0.027414
618.988	0.0271693
619.123	0.0271693
619.258	0.0271693
619.394	0.0282095
619.529	0.0283319
619.664	0.0277812
619.799	0.0278424
619.934	0.0277812
620.069	0.0278424
620.204	0.0272304
620.339	0.0282707
620.474	0.0275976
620.609	0.0285155
620.744	0.0284543
620.879	0.0279648
621.014	0.0283931
621.149	0.027414
621.284	0.0287602
621.419	0.0282707
621.554	0.0280259
621.689	0.0278424
621.825	0.0271693
621.96	0.0279648
622.095	0.0288214
622.23	0.0275976
622.365	0.0282095
622.5	0.0280259
622.635	0.0276588
622.77	0.0281483
622.905	0.0279648
623.04	0.0275364
623.175	0.0283931
623.31	0.029005
623.445	0.0275364
623.58	0.0272304
623.715	0.0279036
623.85	0.0273528
623.985	0.0282707
624.12	0.0286379
624.255	0.0280259
624.39	0.02772
624.525	0.0275976
624.661	0.0283319
624.796	0.0277812
624.931	0.02772
625.066	0.0285767
625.201	0.0281483
625.336	0.0281483
625.471	0.0276588
625.606	0.0271081
625.741	0.0282707
625.876	0.0284543
626.011	0.0279648
626.146	0.0288214
626.281	0.0280259
626.416	0.0278424
626.551	0.0277812
626.686	0.0285767
626.821	0.0276588
626.956	0.0272916
627.091	0.0281483
627.226	0.0279036
627.361	0.0279648
627.496	0.0282095
627.631	0.0286991
627.766	0.0276588
627.901	0.0280871
628.036	0.0277812
628.171	0.02772
628.307	0.0279036
628.442	0.0282095
628.577	0.0274752
628.712	0.0274752
628.847	0.0281483
628.982	0.0275976
629.117	0.0280259
629.252	0.02772
629.387	0.0282707
629.522	0.02772
629.657	0.0275364
629.792	0.02772
629.927	0.0277812
630.062	0.0275976
630.197	0.0281483
630.332	0.0276588
630.467	0.0279036
630.602	0.0275976
630.737	0.0280259
630.872	0.02772
631.007	0.0283931
631.142	0.0281483
631.277	0.0275364
631.412	0.0269857
631.547	0.0281483
631.682	0.0285155
631.817	0.0284543
631.952	0.0279648
632.087	0.0283319
632.222	0.0279648
632.357	0.027414
632.492	0.0280259
632.627	0.0273528
632.762	0.0280871
632.897	0.0279648
633.032	0.0279648
633.167	0.0280259
633.302	0.027414
633.437	0.02772
633.572	0.0272304
633.707	0.0277812
633.842	0.0280871
633.978	0.0282095
634.113	0.02772
634.248	0.0282707
634.383	0.0271081
634.518	0.0279648
634.653	0.0281483
634.788	0.0271081
634.923	0.0282707
635.058	0.02772
635.193	0.0274752
635.328	0.0285767
635.463	0.02772
635.598	0.0267409
635.733	0.0285155
635.868	0.0280871
636.003	0.0280259
636.138	0.0273528
636.273	0.0282095
636.408	0.0278424
636.543	0.0272304
636.678	0.0278424
636.813	0.0275364
636.948	0.0274752
637.083	0.0282095
637.218	0.0277812
637.353	0.0269857
637.488	0.0277812
637.623	0.0285767
637.758	0.027414
637.893	0.0279036
638.028	0.0284543
638.163	0.0282095
638.298	0.0276588
638.433	0.0282095
638.568	0.0272916
638.703	0.0276588
638.838	0.0275976
638.973	0.0280259
639.108	0.0283931
639.243	0.0280871
639.378	0.0280871
639.513	0.0282095
639.648	0.0279036
639.783	0.0278424
639.918	0.0275976
640.053	0.0278424
640.188	0.0282707
640.323	0.0266185
640.458	0.0277812
640.593	0.02772
640.728	0.0287602
640.863	0.0284543
640.998	0.0277812
641.133	0.0284543
641.268	0.0280871
641.403	0.0280259
641.538	0.027414
641.673	0.0271693
641.808	0.0284543
641.943	0.0275364
642.078	0.0270469
642.213	0.027414
642.348	0.0271693
642.483	0.0266797
642.618	0.0280259
642.753	0.0272304
642.888	0.0282095
643.023	0.0276588
643.158	0.027414
643.293	0.0272304
643.428	0.0276588
643.563	0.0273528
643.698	0.0270469
643.833	0.02772
643.968	0.0280259
644.103	0.0283319
644.237	0.0281483
644.372	0.0286991
644.507	0.0271081
644.642	0.0272304
644.777	0.0276588
644.912	0.0273528
645.047	0.0281483
645.182	0.0278424
645.317	0.0285767
645.452	0.0284543
645.587	0.0285155
645.722	0.0277812
645.857	0.0288826
645.992	0.02772
646.127	0.0283931
646.262	0.0281483
646.397	0.0279648
646.532	0.0274752
646.667	0.0286991
646.802	0.0276588
646.937	0.0277812
647.072	0.0288214
647.207	0.0279648
647.342	0.0277812
647.477	0.0278424
647.612	0.0272304
647.747	0.0272304
647.882	0.0272304
648.017	0.0287602
648.152	0.0284543
648.287	0.027414
648.422	0.0278424
648.557	0.0278424
648.692	0.02772
648.827	0.0275976
648.962	0.0285767
649.097	0.0276588
649.232	0.02772
649.367	0.0278424
649.502	0.0285767
649.637	0.0278424
649.772	0.0281483
649.906	0.0279036
650.041	0.0272304
650.176	0.0284543
650.311	0.0285767
650.446	0.0274752
650.581	0.0279036
650.716	0.0275976
650.851	0.0283319
650.986	0.0280259
651.121	0.0278424
651.256	0.0280259
651.391	0.0280259
651.526	0.0280871
651.661	0.0286379
651.796	0.0282707
651.931	0.0280871
652.066	0.0282707
652.201	0.0279036
652.336	0.0275976
652.471	0.0282095
652.606	0.02772
652.741	0.0280259
652.876	0.0281483
653.011	0.0277812
653.146	0.0283319
653.281	0.0279036
653.415	0.0277812
653.55	0.0284543
653.685	0.02772
653.82	0.0279036
653.955	0.0286379
654.09	0.0282095
654.225	0.02772
654.36	0.0278424
654.495	0.0281483
654.63	0.0275976
654.765	0.0280871
654.9	0.0279648
655.035	0.0283931
655.17	0.0285155
655.305	0.027414
655.44	0.02772
655.575	0.0280259
655.71	0.027414
655.845	0.0275976
655.98	0.0282095
656.115	0.0280871
656.25	0.02772
656.384	0.0285155
656.519	0.0285155
656.654	0.0283319
656.789	0.0280259
656.924	0.0276588
657.059	0.0282095
657.194	0.0281483
657.329	0.0280259
657.464	0.0279648
657.599	0.0280871
657.734	0.0279036
657.869	0.0281483
658.004	0.02772
658.139	0.0274752
658.274	0.0274752
658.409	0.0283319
658.544	0.0273528
658.679	0.0286991
658.813	0.0272304
658.948	0.0286991
659.083	0.02772
659.218	0.0281483
659.353	0.0281483
659.488	0.0277812
659.623	0.027414
659.758	0.0270469
659.893	0.0275364
660.028	0.0268633
660.163	0.0283931
660.298	0.0271693
660.433	0.0273528
660.568	0.0278424
660.703	0.0281483
660.838	0.0277812
660.972	0.0283319
661.107	0.0283931
661.242	0.0285155
661.377	0.0278424
661.512	0.0277812
661.647	0.0286991
661.782	0.0278424
661.917	0.0271081
662.052	0.0285767
662.187	0.029005
662.322	0.0272916
662.457	0.0282707
662.592	0.0273528
662.727	0.0278424
662.862	0.0272916
662.996	0.0272916
663.131	0.0276588
663.266	0.0288214
663.401	0.0281483
663.536	0.0269857
663.671	0.0273528
663.806	0.0285767
663.941	0.0284543
664.076	0.0275364
664.211	0.0273528
664.346	0.0281483
664.481	0.0281483
664.616	0.0275364
664.75	0.0276588
664.885	0.0278424
665.02	0.0279036
665.155	0.0285767
665.29	0.0288214
665.425	0.0275364
665.56	0.0277812
665.695	0.0281483
665.83	0.027414
665.965	0.0267409
666.1	0.027414
666.235	0.0282095
666.37	0.0269857
666.504	0.0271693
666.639	0.0268633
666.774	0.0281483
666.909	0.0279648
667.044	0.0272304
667.179	0.0279648
667.314	0.0285767
667.449	0.0283931
667.584	0.0279648
667.719	0.0278424
667.854	0.02772
667.989	0.0292498
668.123	0.0276588
668.258	0.0269245
668.393	0.0282707
668.528	0.0279648
668.663	0.0282095
668.798	0.0276588
668.933	0.0277812
669.068	0.0271693
669.203	0.0287602
669.338	0.0275364
669.473	0.0279648
669.607	0.0276588
669.742	0.0279036
669.877	0.0271693
670.012	0.0275976
670.147	0.0282095
670.282	0.0285155
670.417	0.0285155
670.552	0.0280259
670.687	0.0282095
670.822	0.0279036
670.957	0.0266797
671.091	0.0267409
671.226	0.0278424
671.361	0.0275976
671.496	0.0277812
671.631	0.0279036
671.766	0.0275976
671.901	0.027414
672.036	0.0276588
672.171	0.0285767
672.306	0.0275364
672.44	0.027414
672.575	0.0275976
672.71	0.027414
672.845	0.0286379
672.98	0.0281483
673.115	0.0288214
673.25	0.0272916
673.385	0.0281483
673.52	0.0280871
673.655	0.0281483
673.789	0.027414
673.924	0.0283319
674.059	0.0282707
674.194	0.0273528
674.329	0.0282707
674.464	0.0281483
674.599	0.0275364
674.734	0.02772
674.869	0.0275364
675.003	0.0280259
675.138	0.0275976
675.273	0.0267409
675.408	0.0277812
675.543	0.0278424
675.678	0.0277812
675.813	0.0275976
675.948	0.0273528
676.083	0.0277812
676.217	0.0274752
676.352	0.0275364
676.487	0.0280259
676.622	0.0272916
676.757	0.0287602
676.892	0.0284543
677.027	0.0275976
677.162	0.0288214
677.297	0.0280259
677.431	0.0275976
677.566	0.0276588
677.701	0.02772
677.836	0.02772
677.971	0.0272916
678.106	0.0286379
678.241	0.0287602
678.376	0.0278424
678.511	0.0281483
678.645	0.0274752
678.78	0.0287602
678.915	0.027414
679.05	0.0277812
679.185	0.0274752
679.32	0.02772
679.455	0.0284543
679.59	0.0286379
679.724	0.0277812
679.859	0.0274752
679.994	0.0272304
680.129	0.027414
680.264	0.0269857
680.399	0.0272916
680.534	0.0278424
680.669	0.0290662
680.803	0.0271693
680.938	0.0274752
681.073	0.0283319
681.208	0.0269857
681.343	0.0283931
681.478	0.0273528
681.613	0.0280871
681.748	0.0268021
681.882	0.02772
682.017	0.02772
682.152	0.0282707
682.287	0.0282095
682.422	0.0285155
682.557	0.0278424
682.692	0.0281483
682.827	0.0279036
682.961	0.0271081
683.096	0.0276588
683.231	0.0275364
683.366	0.0273528
683.501	0.0279036
683.636	0.0279036
683.771	0.0265573
683.906	0.0274752
684.04	0.0273528
684.175	0.0286991
684.31	0.027414
684.445	0.0272916
684.58	0.0285155
684.715	0.0266797
684.85	0.0277812
684.984	0.0281483
685.119	0.0278424
685.254	0.0274752
685.389	0.02772
685.524	0.0280871
685.659	0.0285767
685.794	0.0274752
685.928	0.0275976
686.063	0.0278424
686.198	0.0283931
686.333	0.0277812
686.468	0.0280259
686.603	0.0272916
686.738	0.0283931
686.872	0.0279036
687.007	0.0272916
687.142	0.0282095
687.277	0.0277812
687.412	0.0285767
687.547	0.0278424
687.682	0.02772
687.816	0.0290662
687.951	0.0281483
688.086	0.0272916
688.221	0.0279648
688.356	0.0290662
688.491	0.0277812
688.626	0.0273528
688.76	0.0268021
688.895	0.027414
689.03	0.0277812
689.165	0.0275976
689.3	0.0280871
689.435	0.0279036
689.57	0.0287602
689.704	0.0273528
689.839	0.02772
689.974	0.0279648
690.109	0.0279036
690.244	0.0283931
690.379	0.0275976
690.513	0.0277812
690.648	0.027414
690.783	0.0286379
690.918	0.0277812
691.053	0.0291886
691.188	0.0280871
691.323	0.0278424
691.457	0.0272304
691.592	0.0279648
691.727	0.0283931
691.862	0.0283931
691.997	0.0277812
692.132	0.0279648
692.266	0.0275976
692.401	0.0282095
692.536	0.0272304
692.671	0.029311
692.806	0.0273528
692.941	0.0280259
693.075	0.0279036
693.21	0.0281483
693.345	0.0277812
693.48	0.0276588
693.615	0.0277812
693.75	0.027414
693.885	0.026435
694.019	0.0279036
694.154	0.0283931
694.289	0.0280259
694.424	0.0279036
694.559	0.0279036
694.694	0.027414
694.828	0.0281483
694.963	0.02772
695.098	0.0283931
695.233	0.0272304
695.368	0.02772
695.503	0.0282707
695.637	0.0282095
695.772	0.0277812
695.907	0.0271081
696.042	0.0271693
696.177	0.0280259
696.312	0.027414
696.446	0.0272916
696.581	0.0279648
696.716	0.0278424
696.851	0.0277812
696.986	0.0287602
697.12	0.0275976
697.255	0.0279648
697.39	0.0282707
697.525	0.0271693
697.66	0.0278424
697.795	0.0281483
697.929	0.0281483
698.064	0.0272916
698.199	0.0289438
698.334	0.0275364
698.469	0.0273528
698.604	0.02772
698.738	0.0276588
698.873	0.0282095
699.008	0.0269857
699.143	0.0280871
699.278	0.0272304
699.412	0.0276588
699.547	0.0278424
699.682	0.0280259
699.817	0.0278424
699.952	0.0289438
700.087	0.0282095
700.221	0.0275976
700.356	0.029005
700.491	0.0279648
700.626	0.027414
700.761	0.0280871
700.895	0.0275364
701.03	0.0279648
701.165	0.0272916
701.3	0.0273528
701.435	0.0277812
701.57	0.0281483
701.704	0.0277812
701.839	0.0275364
701.974	0.0274752
702.109	0.02772
702.244	0.0275364
702.378	0.0280871
702.513	0.0275976
702.648	0.0271693
702.783	0.0275364
702.918	0.0272916
703.052	0.0272916
703.187	0.0280259
703.322	0.0272304
703.457	0.0281483
703.592	0.0281483
703.727	0.0285767
703.861	0.0280259
703.996	0.0278424
704.131	0.0270469
704.266	0.0278424
704.401	0.0276588
704.535	0.0272916
704.67	0.0276588
704.805	0.027414
704.94	0.0274752
705.075	0.0278424
705.209	0.0275976
705.344	0.0278424
705.479	0.02772
705.614	0.027414
705.749	0.0275364
705.883	0.0275364
706.018	0.027414
706.153	0.0283319
706.288	0.0289438
706.423	0.0273528
706.557	0.0283931
706.692	0.0280259
706.827	0.0275976
706.962	0.0279036
707.097	0.0279036
707.231	0.0280259
707.366	0.0280259
707.501	0.0276588
707.636	0.02772
707.771	0.0278424
707.905	0.0280259
708.04	0.02772
708.175	0.0275364
708.31	0.0292498
708.445	0.0272916
708.579	0.0276588
708.714	0.0275364
708.849	0.02772
708.984	0.0274752
709.118	0.0277812
709.253	0.0286991
709.388	0.0269857
709.523	0.02772
709.658	0.0280871
709.792	0.0285767
709.927	0.0282707
710.062	0.0282095
710.197	0.0280871
710.332	0.0276588
710.466	0.0282095
710.601	0.0280259
710.736	0.0280871
710.871	0.0280259
711.006	0.0273528
711.14	0.0282095
711.275	0.0280871
711.41	0.0277812
711.545	0.0285767
711.679	0.02772
711.814	0.0280871
711.949	0.0280259
712.084	0.0280259
712.219	0.0284543
712.353	0.0273528
712.488	0.0278424
712.623	0.0280871
712.758	0.0277812
712.892	0.0280871
713.027	0.0285767
713.162	0.027414
713.297	0.0275364
713.432	0.0281483
713.566	0.0275976
713.701	0.0280871
713.836	0.0278424
713.971	0.0286991
714.105	0.0280259
714.24	0.0278424
714.375	0.0281483
714.51	0.0276588
714.645	0.0281483
714.779	0.0288214
714.914	0.0275364
715.049	0.0277812
715.184	0.0277812
715.318	0.0272916
715.453	0.0272916
715.588	0.0275364
715.723	0.0280871
715.858	0.0282095
715.992	0.0272304
716.127	0.0285767
716.262	0.0275364
716.397	0.0275976
716.531	0.0271081
716.666	0.0285155
716.801	0.0275364
716.936	0.0281483
717.07	0.0280871
717.205	0.0275976
717.34	0.0277812
717.475	0.0278424
717.61	0.0283319
717.744	0.0276588
717.879	0.02772
718.014	0.0281483
718.149	0.0280871
718.283	0.0276588
718.418	0.0273528
718.553	0.0283319
718.688	0.0277812
718.822	0.0280871
718.957	0.0270469
719.092	0.0285155
719.227	0.0288214
719.361	0.0281483
719.496	0.0277812
719.631	0.027414
719.766	0.0280871
719.9	0.0282707
720.035	0.0275364
720.17	0.0279036
720.305	0.0276588
720.44	0.0277812
720.574	0.0276588
720.709	0.0268021
720.844	0.0275976
720.979	0.0282707
721.113	0.0280871
721.248	0.0286991
721.383	0.0275976
721.518	0.0271081
721.652	0.0280871
721.787	0.0281483
721.922	0.0279036
722.057	0.0285155
722.191	0.027414
722.326	0.0275976
722.461	0.0274752
722.596	0.0280259
722.73	0.0272304
722.865	0.0272916
723	0.0279648
723.135	0.0279648
723.269	0.0278424
723.404	0.0271693
723.539	0.0268633
723.674	0.0276588
723.808	0.0282707
723.943	0.0285155
724.078	0.0279648
724.213	0.0289438
724.347	0.0274752
724.482	0.0285155
724.617	0.0279036
724.752	0.0279036
724.886	0.0285155
725.021	0.0279648
725.156	0.0282095
725.291	0.0282095
725.425	0.0278424
725.56	0.0272304
725.695	0.0265573
725.829	0.0277812
725.964	0.0274752
726.099	0.0281483
726.234	0.0284543
726.368	0.0282707
726.503	0.0281483
726.638	0.0271693
726.773	0.02772
726.907	0.0275364
727.042	0.0282707
727.177	0.0279036
727.312	0.02772
727.446	0.0271693
727.581	0.0279036
727.716	0.0282707
727.851	0.0275976
727.985	0.0283931
728.12	0.0284543
728.255	0.0269245
728.389	0.0282707
728.524	0.0272916
728.659	0.0275976
728.794	0.0283319
728.928	0.0273528
729.063	0.0280871
729.198	0.0283931
729.333	0.0275364
729.467	0.0281483
729.602	0.0281483
729.737	0.0269245
729.872	0.0279648
730.006	0.0282095
730.141	0.0283931
730.276	0.0275364
730.41	0.0274752
730.545	0.0270469
730.68	0.0281483
730.815	0.0280871
730.949	0.0281483
731.084	0.0274752
731.219	0.0284543
731.354	0.0269857
731.488	0.0288214
731.623	0.0275976
731.758	0.0272916
731.892	0.0272916
732.027	0.0276588
732.162	0.0271693
732.297	0.0275976
732.431	0.0283319
732.566	0.0282707
732.701	0.0276588
732.835	0.0272916
732.97	0.0271081
733.105	0.0285155
733.24	0.0273528
733.374	0.0276588
733.509	0.0283931
733.644	0.0275976
733.779	0.0272304
733.913	0.0279036
734.048	0.0272304
734.183	0.0275364
734.317	0.0269245
734.452	0.0282707
734.587	0.027414
734.722	0.0281483
734.856	0.0275364
734.991	0.0273528
735.126	0.0275976
735.26	0.0288214
735.395	0.0275364
735.53	0.0282707
735.665	0.0284543
735.799	0.0277812
735.934	0.0279648
736.069	0.0289438
736.203	0.0272916
736.338	0.0285767
736.473	0.0273528
736.607	0.02772
736.742	0.0275976
736.877	0.0274752
737.012	0.0284543
737.146	0.0280259
737.281	0.0275364
737.416	0.0262514
737.55	0.0281483
737.685	0.027414
737.82	0.02772
737.955	0.0275976
738.089	0.0280871
738.224	0.0279036
738.359	0.0280871
738.493	0.0274752
738.628	0.0280259
738.763	0.0277812
738.897	0.0283319
739.032	0.0279648
739.167	0.0277812
739.302	0.027414
739.436	0.0286991
739.571	0.0275976
739.706	0.0278424
739.84	0.02772
739.975	0.0281483
740.11	0.0285767
740.244	0.0273528
740.379	0.02772
740.514	0.0274752
740.649	0.0275976
740.783	0.0271693
740.918	0.0281483
741.053	0.0275976
741.187	0.0278424
741.322	0.0281483
741.457	0.0278424
741.591	0.0275976
741.726	0.0285767
741.861	0.0273528
741.996	0.0282707
742.13	0.0275364
742.265	0.0283931
742.4	0.0275364
742.534	0.0286991
742.669	0.0272304
742.804	0.0280871
742.938	0.0279036
743.073	0.0286379
743.208	0.0280259
743.342	0.02772
743.477	0.0271081
743.612	0.0288214
743.747	0.0286379
743.881	0.0286991
744.016	0.0286379
744.151	0.0275976
744.285	0.0275976
744.42	0.0276588
744.555	0.0279036
744.689	0.0275364
744.824	0.0266797
744.959	0.0280871
745.093	0.0281483
745.228	0.0282707
745.363	0.0279648
745.497	0.0272916
745.632	0.02772
745.767	0.0272916
745.901	0.0275364
746.036	0.0279648
746.171	0.0276588
746.305	0.0285767
746.44	0.0269245
746.575	0.0272916
746.71	0.0278424
746.844	0.0279648
746.979	0.0272304
747.114	0.0276588
747.248	0.0281483
747.383	0.0270469
747.518	0.0271081
747.652	0.0280259
747.787	0.0280259
747.922	0.027414
748.056	0.0279648
748.191	0.0276588
748.326	0.0272916
748.46	0.0282095
748.595	0.0280871
748.73	0.0277812
748.864	0.0281483
748.999	0.0271081
749.134	0.0281483
749.268	0.0273528
749.403	0.0280871
749.538	0.0275976
749.672	0.0283319
749.807	0.027414
749.942	0.0275976
750.076	0.0279648
750.211	0.0272304
750.346	0.0280259
750.48	0.0286991
750.615	0.0279648
750.75	0.0279648
750.884	0.0273528
751.019	0.0273528
751.154	0.0283319
751.288	0.027414
751.423	0.02772
751.558	0.0282095
751.692	0.0279036
751.827	0.0278424
751.962	0.0282095
752.096	0.0282095
752.231	0.0272916
752.366	0.0280259
752.5	0.02772
752.635	0.0293722
752.77	0.0278424
752.904	0.0280259
753.039	0.0272304
753.174	0.02772
753.308	0.0281483
753.443	0.0271693
753.578	0.0282095
753.712	0.0272304
753.847	0.0280871
753.982	0.0275976
754.116	0.0278424
754.251	0.0276588
754.386	0.0275976
754.52	0.0285767
754.655	0.0275976
754.79	0.0284543
754.924	0.0275976
755.059	0.0274752
755.194	0.0280259
755.328	0.0272304
755.463	0.0288826
755.597	0.02772
755.732	0.0280259
755.867	0.0275976
756.001	0.0277812
756.136	0.0272916
756.271	0.0280259
756.405	0.0280871
756.54	0.0269245
756.675	0.0280871
756.809	0.0271693
756.944	0.0283931
757.079	0.0269245
757.213	0.027414
757.348	0.0275976
757.483	0.0279648
757.617	0.0278424
757.752	0.0276588
757.887	0.0278424
758.021	0.0281483
758.156	0.0279036
758.29	0.0274752
758.425	0.0282095
758.56	0.0274752
758.694	0.0280259
758.829	0.0277812
758.964	0.0282707
759.098	0.0275976
759.233	0.0277812
759.368	0.0282095
759.502	0.0274752
759.637	0.0269857
759.772	0.0275364
759.906	0.027414
760.041	0.0280871
760.175	0.0272304
760.31	0.0278424
760.445	0.0280871
760.579	0.0278424
760.714	0.0275976
760.849	0.0278424
760.983	0.0285767
761.118	0.0282707
761.253	0.0273528
761.387	0.0279036
761.522	0.0273528
761.656	0.02772
761.791	0.0280259
761.926	0.0277812
762.06	0.0266797
762.195	0.0275364
762.33	0.0281483
762.464	0.0280259
762.599	0.0282707
762.733	0.0285767
762.868	0.0274752
763.003	0.0280871
763.137	0.0278424
763.272	0.0282707
763.407	0.0272916
763.541	0.0272304
763.676	0.0281483
763.811	0.0286379
763.945	0.0277812
764.08	0.0280871
764.214	0.0272304
764.349	0.0282707
764.484	0.027414
764.618	0.0280871
764.753	0.0277812
764.888	0.0275976
765.022	0.0272304
765.157	0.0277812
765.291	0.0282707
765.426	0.0276588
765.561	0.0275364
765.695	0.0276588
765.83	0.0275364
765.965	0.0272916
766.099	0.027414
766.234	0.0280259
766.368	0.0268021
766.503	0.0280871
766.638	0.02772
766.772	0.0272916
766.907	0.0269245
767.041	0.0285155
767.176	0.0277812
767.311	0.0275364
767.445	0.0279648
767.58	0.0275976
767.715	0.0278424
767.849	0.0283319
767.984	0.0275976
768.118	0.0282095
768.253	0.0278424
768.388	0.0288214
768.522	0.0275976
768.657	0.0280259
768.791	0.0282095
768.926	0.0282095
769.061	0.0275364
769.195	0.02772
769.33	0.0271081
769.465	0.0274752
769.599	0.0279036
769.734	0.0278424
769.868	0.0280871
770.003	0.0276588
770.138	0.0280259
770.272	0.0280871
770.407	0.0271693
770.541	0.0273528
770.676	0.0280871
770.811	0.027414
770.945	0.0278424
771.08	0.0276588
771.214	0.0271081
771.349	0.0272916
771.484	0.0272916
771.618	0.0268633
771.753	0.02772
771.887	0.0281483
772.022	0.0279648
772.157	0.0280259
772.291	0.0276588
772.426	0.0279648
772.56	0.0283931
772.695	0.0278424
772.83	0.0288214
772.964	0.0272916
773.099	0.0279036
773.233	0.0277812
773.368	0.0279036
773.503	0.0274752
773.637	0.0277812
773.772	0.0279648
773.906	0.0279036
774.041	0.02772
774.176	0.0275976
774.31	0.0277812
774.445	0.0271693
774.579	0.0282095
774.714	0.0285155
774.849	0.0278424
774.983	0.0278424
775.118	0.0282707
775.252	0.0272916
775.387	0.0281483
775.522	0.0271081
775.656	0.0280259
775.791	0.027414
775.925	0.0273528
776.06	0.02772
776.195	0.0279648
776.329	0.0271081
776.464	0.0279648
776.598	0.0278424
776.733	0.0270469
776.868	0.0271693
777.002	0.027414
777.137	0.0279036
777.271	0.0275364
777.406	0.0279648
777.54	0.027414
777.675	0.0277812
777.81	0.0281483
777.944	0.02772
778.079	0.0276588
778.213	0.0285767
778.348	0.0280871
778.483	0.0280871
778.617	0.0275976
778.752	0.0280871
778.886	0.0276588
779.021	0.0274752
779.155	0.0283319
779.29	0.0282095
779.425	0.0283319
779.559	0.0277812
779.694	0.0282095
779.828	0.0280259
779.963	0.0283931
780.098	0.0273528
780.232	0.0276588
780.367	0.02772
780.501	0.0279648
780.636	0.0280871
780.77	0.0279648
780.905	0.0285155
781.04	0.0286991
781.174	0.0275364
781.309	0.0282095
781.443	0.0280259
781.578	0.0276588
781.712	0.0279648
781.847	0.0285155
781.982	0.027414
782.116	0.0280871
782.251	0.0279648
782.385	0.0272304
782.52	0.0280871
782.654	0.027414
782.789	0.0271081
782.924	0.0270469
783.058	0.0275976
783.193	0.0269857
783.327	0.0275364
783.462	0.0282707
783.596	0.0275364
783.731	0.0277812
783.866	0.0275364
784	0.0272916
784.135	0.0278424
784.269	0.027414
784.404	0.0281483
784.538	0.0269245
784.673	0.0286379
784.808	0.0278424
784.942	0.0278424
785.077	0.0277812
785.211	0.0286991
785.346	0.0280871
785.48	0.0279648
785.615	0.0282095
785.75	0.0268633
785.884	0.027414
786.019	0.0274752
786.153	0.0276588
786.288	0.0280259
786.422	0.0282095
786.557	0.0266185
786.691	0.0280259
786.826	0.0270469
786.961	0.0277812
787.095	0.0279036
787.23	0.0274752
787.364	0.0280259
787.499	0.0269245
787.633	0.0275976
787.768	0.0277812
787.902	0.0286379
788.037	0.0283319
788.172	0.0271693
788.306	0.0279036
788.441	0.0280871
788.575	0.0275976
788.71	0.0288826
788.844	0.0283319
788.979	0.0276588
789.113	0.0275364
789.248	0.0281483
789.383	0.0282707
789.517	0.0276588
789.652	0.0279036
789.786	0.0278424
789.921	0.02772
790.055	0.0276588
790.19	0.0275976
790.324	0.0275976
790.459	0.0280259
790.594	0.0285155
790.728	0.0274752
790.863	0.0276588
790.997	0.0280871
791.132	0.0279036
791.266	0.0281483
791.401	0.0280259
791.535	0.0274752
791.67	0.0272916
791.804	0.0284543
791.939	0.0278424
792.074	0.0271693
792.208	0.0278424
792.343	0.027414
792.477	0.0280259
792.612	0.0281483
792.746	0.0275976
792.881	0.0271693
793.015	0.0280259
793.15	0.02772
793.284	0.0277812
793.419	0.0279036
793.553	0.0280871
793.688	0.0275364
793.823	0.0278424
793.957	0.0282095
794.092	0.0272304
794.226	0.0275976
794.361	0.0275364
794.495	0.0272304
794.63	0.0280259
794.764	0.027414
794.899	0.0282095
795.033	0.027414
795.168	0.0277812
795.302	0.0286379
795.437	0.0269245
795.572	0.0286991
795.706	0.0279036
795.841	0.0285155
795.975	0.027414
796.11	0.0284543
796.244	0.0273528
796.379	0.0277812
796.513	0.027414
796.648	0.0288826
796.782	0.0279648
796.917	0.0276588
797.051	0.0275976
797.186	0.0283319
797.32	0.0269857
797.455	0.0282707
797.589	0.0279648
797.724	0.0286379
797.859	0.0275364
797.993	0.0274752
798.128	0.0272916
798.262	0.0280871
798.397	0.0283319
798.531	0.0280871
798.666	0.0269245
798.8	0.0271693
798.935	0.0278424
799.069	0.0279036
799.204	0.0269857
799.338	0.0280259
799.473	0.0277812
799.607	0.0283319
799.742	0.0282095
799.876	0.0283319
800.011	0.0282095
800.145	0.0277812
800.28	0.0280259
800.414	0.0281483
800.549	0.0276588
800.683	0.0280871
800.818	0.0285155
800.953	0.0269245
801.087	0.0275976
801.222	0.0277812
801.356	0.0279648
801.491	0.0285767
801.625	0.0278424
801.76	0.0280871
801.894	0.0285767
802.029	0.0281483
802.163	0.0280871
802.298	0.0284543
802.432	0.0275976
802.567	0.0284543
802.701	0.0273528
802.836	0.0282095
802.97	0.0287602
803.105	0.0285767
803.239	0.0280871
803.374	0.0290662
803.508	0.0286379
803.643	0.0276588
803.777	0.0289438
803.912	0.0280259
804.046	0.0279036
804.181	0.0275976
804.315	0.0283931
804.45	0.0278424
804.584	0.0282095
804.719	0.0283319
804.853	0.0281483
804.988	0.0285155
805.122	0.0285155
805.257	0.0287602
805.391	0.0291274
805.526	0.0280259
805.66	0.0291274
805.795	0.0290662
805.929	0.0282707
806.064	0.0283931
806.198	0.02772
806.333	0.0280259
806.467	0.0288214
806.602	0.0286379
806.736	0.0291886
806.871	0.0284543
807.005	0.0282095
807.14	0.0287602
807.274	0.0280259
807.409	0.0281483
807.543	0.0282095
807.678	0.0286379
807.812	0.0285767
807.947	0.0293722
808.081	0.0289438
808.216	0.0288826
808.35	0.0292498
808.485	0.0297393
808.619	0.0288826
808.754	0.0290662
808.888	0.0294334
809.023	0.0300453
809.157	0.029311
809.292	0.0303512
809.426	0.0297393
809.561	0.0299229
809.695	0.0291886
809.83	0.0291274
809.964	0.0300453
810.099	0.0302289
810.233	0.0298617
810.368	0.0304736
810.502	0.0313915
810.637	0.0311467
810.771	0.0316975
810.906	0.0319422
811.04	0.0318199
811.175	0.0313915
811.309	0.0317587
811.444	0.032493
811.578	0.0341451
811.713	0.0331661
811.847	0.0348183
811.982	0.0353078
812.116	0.0359197
812.251	0.0364093
812.385	0.0361033
812.519	0.0386734
812.654	0.0398972
812.788	0.0408151
812.923	0.041427
813.057	0.0439359
813.192	0.0445478
813.326	0.0485253
813.461	0.0553176
813.595	0.0745319
813.73	0.151083
813.864	0.393893
813.999	0.510341
814.133	1.00251
814.268	1.00251
814.402	1
814.537	1.00251
814.671	0.995105
814.806	0.999021
814.94	0.988006
815.075	0.993942
815.209	0.978644
815.344	0.984335
815.478	0.959858
815.612	0.965794
815.747	0.555256
815.881	0.210623
816.016	0.119263
816.15	0.0932566
816.285	0.200159
816.419	0.246359
816.554	0.127096
816.688	0.0527475
816.823	0.0378167
816.957	0.0359197
817.092	0.0353078
817.226	0.0354914
817.361	0.0342675
817.495	0.0324318
817.63	0.032493
817.764	0.0316363
817.898	0.0317587
818.033	0.0318199
818.167	0.0306572
818.302	0.0313303
818.436	0.0307184
818.571	0.0302901
818.705	0.0305348
818.84	0.0307184
818.974	0.0301677
819.109	0.0301677
819.243	0.0304124
819.378	0.0297393
819.512	0.0304736
819.646	0.0300453
819.781	0.0296169
819.915	0.0297393
820.05	0.0286991
820.184	0.0299229
820.319	0.0291274
820.453	0.029311
820.588	0.0294946
820.722	0.0291274
820.857	0.0285767
820.991	0.0294334
821.126	0.0288826
821.26	0.0293722
821.394	0.0288214
821.529	0.0287602
821.663	0.0283319
821.798	0.0281483
821.932	0.0285767
822.067	0.0290662
822.201	0.0283319
822.336	0.0286379
822.47	0.0288214
822.605	0.029005
822.739	0.0283319
822.873	0.0286991
823.008	0.0283319
823.142	0.029005
823.277	0.0287602
823.411	0.0280259
823.546	0.0283931
823.68	0.0278424
823.815	0.02772
823.949	0.02772
824.083	0.0294334
824.218	0.0282707
824.352	0.0282095
824.487	0.0278424
824.621	0.0275976
824.756	0.0282095
824.89	0.0280259
825.025	0.0285767
825.159	0.0278424
825.293	0.0285155
825.428	0.0286379
825.562	0.0286379
825.697	0.0286991
825.831	0.0278424
825.966	0.0282095
826.1	0.0280259
826.235	0.0277812
826.369	0.0277812
826.503	0.02772
826.638	0.0283931
826.772	0.0275976
826.907	0.0283319
827.041	0.0280259
827.176	0.0277812
827.31	0.0270469
827.445	0.0288826
827.579	0.0279648
827.713	0.0280871
827.848	0.0279648
827.982	0.0280259
828.117	0.0285767
828.251	0.0278424
828.386	0.0286991
828.52	0.0281483
828.654	0.0275364
828.789	0.0279036
828.923	0.0276588
829.058	0.0279648
829.192	0.0287602
829.327	0.0282707
829.461	0.0272304
829.596	0.0280871
829.73	0.0283931
829.864	0.0278424
829.999	0.0282095
830.133	0.0283931
830.268	0.0280871
830.402	0.0279036
830.537	0.0277812
830.671	0.0282707
830.805	0.0283319
830.94	0.0286991
831.074	0.0288826
831.209	0.02772
831.343	0.0276588
831.478	0.0283319
831.612	0.0270469
831.746	0.0279648
831.881	0.0272916
832.015	0.0274752
832.15	0.029005
832.284	0.0277812
832.418	0.0280871
832.553	0.0272304
832.687	0.0274752
832.822	0.0276588
832.956	0.0281483
833.091	0.0281483
833.225	0.0280259
833.359	0.02772
833.494	0.0280871
833.628	0.0279648
833.763	0.0279648
833.897	0.0283931
834.032	0.0272916
834.166	0.0275976
834.3	0.0286991
834.435	0.0279648
834.569	0.0282095
834.704	0.0279036
834.838	0.0277812
834.972	0.0282707
835.107	0.0280871
835.241	0.0285767
835.376	0.0283931
835.51	0.0275364
835.645	0.0272304
835.779	0.0282707
835.913	0.0286379
836.048	0.0281483
836.182	0.0283931
836.317	0.027414
836.451	0.0277812
836.585	0.0275976
836.72	0.0278424
836.854	0.0275364
836.989	0.0282095
837.123	0.0282095
837.257	0.0268021
837.392	0.0277812
837.526	0.0280871
837.661	0.0280259
837.795	0.0278424
837.929	0.0268021
838.064	0.02772
838.198	0.0282095
838.333	0.0274752
838.467	0.0283319
838.602	0.0281483
838.736	0.0282707
838.87	0.0275364
839.005	0.0271081
839.139	0.0288826
839.274	0.0280259
839.408	0.0286379
839.542	0.0285155
839.677	0.027414
839.811	0.0278424
839.946	0.0283319
840.08	0.0277812
840.214	0.0285155
840.349	0.0280871
840.483	0.0279036
840.618	0.02772
840.752	0.0271693
840.886	0.0283931
841.021	0.0283931
841.155	0.0271693
841.29	0.02772
841.424	0.02772
841.558	0.0281483
841.693	0.0287602
841.827	0.0277812
841.961	0.0280871
842.096	0.0274752
842.23	0.026435
842.365	0.0279648
842.499	0.0283319
842.633	0.0286379
842.768	0.0280259
842.902	0.0280259
843.037	0.0282707
843.171	0.0277812
843.305	0.027414
843.44	0.0275976
843.574	0.0280871
843.709	0.0280259
843.843	0.027414
843.977	0.0279036
844.112	0.0276588
844.246	0.0282707
844.381	0.0280259
844.515	0.0272916
844.649	0.0272304
844.784	0.0280259
844.918	0.0280871
845.052	0.0277812
845.187	0.0275364
845.321	0.0276588
845.456	0.0273528
845.59	0.0283319
845.724	0.0281483
845.859	0.0283319
845.993	0.0277812
846.128	0.0275364
846.262	0.0272916
846.396	0.0282095
846.531	0.0281483
846.665	0.0284543
846.799	0.0279036
846.934	0.0269857
847.068	0.0277812
847.203	0.0279648
847.337	0.0279648
847.471	0.0266797
847.606	0.0279648
847.74	0.0280259
847.874	0.0279036
848.009	0.0272304
848.143	0.0282095
848.278	0.0263738
848.412	0.0275364
848.546	0.0277812
848.681	0.0282095
848.815	0.02772
848.949	0.0280259
849.084	0.0273528
849.218	0.0277812
849.353	0.0279036
849.487	0.02772
849.621	0.0280259
849.756	0.0275364
849.89	0.0282707
850.024	0.0272304
850.159	0.0288214
850.293	0.0279036
850.428	0.0281483
850.562	0.0269857
850.696	0.0280259
850.831	0.0285767
850.965	0.0275976
851.099	0.0276588
851.234	0.0261902
851.368	0.0278424
851.502	0.02772
851.637	0.0281483
851.771	0.0271081
851.906	0.0275364
852.04	0.0283319
852.174	0.0276588
852.309	0.027414
852.443	0.02772
852.577	0.0282707
852.712	0.0276588
852.846	0.0283931
852.98	0.0283319
853.115	0.0280871
853.249	0.0283319
853.384	0.0278424
853.518	0.0275364
853.652	0.0271081
853.787	0.0273528
853.921	0.0275976
854.055	0.0272916
854.19	0.0284543
854.324	0.0272304
854.458	0.0272304
854.593	0.0274752
854.727	0.0281483
854.861	0.0272916
854.996	0.0279648
855.13	0.0271081
855.265	0.0286379
855.399	0.0279036
855.533	0.0287602
855.668	0.0275364
855.802	0.0279036
855.936	0.0275364
856.071	0.0285767
856.205	0.0280259
856.339	0.0272304
856.474	0.0288214
856.608	0.0282095
856.742	0.0285155
856.877	0.0274752
857.011	0.0278424
857.145	0.0279036
857.28	0.0284543
857.414	0.0283931
857.549	0.0282707
857.683	0.0277812
857.817	0.0279036
857.952	0.0282095
858.086	0.0275976
858.22	0.0274752
858.355	0.0279648
858.489	0.0280259
858.623	0.02772
858.758	0.0275976
858.892	0.027414
859.026	0.0283319
859.161	0.0271081
859.295	0.0278424
859.429	0.0286991
859.564	0.027414
859.698	0.0285155
859.832	0.0286991
859.967	0.0272916
860.101	0.0270469
860.235	0.027414
860.37	0.0280871
860.504	0.0276588
860.638	0.0272304
860.773	0.0277812
860.907	0.0279648
861.041	0.0283319
861.176	0.02772
861.31	0.02772
861.444	0.0280259
861.579	0.02772
861.713	0.0280259
861.847	0.0283319
861.982	0.0277812
862.116	0.0275976
862.25	0.0273528
862.385	0.0270469
862.519	0.0288826
862.653	0.02772
862.788	0.0279648
862.922	0.0275976
863.056	0.02772
863.191	0.0274752
863.325	0.027414
863.459	0.027414
863.594	0.0279036
863.728	0.0270469
863.862	0.0268633
863.997	0.0279648
864.131	0.02772
864.265	0.0282095
864.4	0.0279036
864.534	0.0279648
864.668	0.0272916
864.803	0.0279648
864.937	0.0276588
865.071	0.0282707
865.206	0.0274752
865.34	0.0280871
865.474	0.0283319
865.609	0.0276588
865.743	0.0283319
865.877	0.0279036
866.012	0.0277812
866.146	0.0275364
866.28	0.0286991
866.415	0.0268633
866.549	0.0285767
866.683	0.0283319
866.818	0.0278424
866.952	0.0279036
867.086	0.0285155
867.221	0.0279648
867.355	0.0286379
867.489	0.0271081
867.623	0.0279648
867.758	0.0282707
867.892	0.0275976
868.026	0.0279648
868.161	0.0270469
868.295	0.02772
868.429	0.0280871
868.564	0.0278424
868.698	0.0281483
868.832	0.0279036
868.967	0.0278424
869.101	0.0281483
869.235	0.0279648
869.37	0.0279648
869.504	0.0275364
869.638	0.0273528
869.773	0.0279648
869.907	0.0283319
870.041	0.0279036
870.175	0.0279648
870.31	0.0280871
870.444	0.0266797
870.578	0.0275976
870.713	0.0276588
870.847	0.0280259
870.981	0.0276588
871.116	0.0285155
871.25	0.0274752
871.384	0.0283319
871.519	0.0273528
871.653	0.0277812
871.787	0.0272916
871.921	0.0270469
872.056	0.0278424
872.19	0.0279036
872.324	0.0290662
872.459	0.0285767
872.593	0.0274752
872.727	0.0277812
872.862	0.0279648
872.996	0.0274752
873.13	0.0275364
873.264	0.0272304
873.399	0.027414
873.533	0.0285767
873.667	0.02772
873.802	0.0284543
873.936	0.0281483
874.07	0.0274752
874.205	0.0272304
874.339	0.0279036
874.473	0.0281483
874.607	0.0269857
874.742	0.0283319
874.876	0.0282095
875.01	0.0281483
875.145	0.0279648
875.279	0.0281483
875.413	0.0279036
875.548	0.0282707
875.682	0.0285155
875.816	0.0275976
875.95	0.0285155
876.085	0.0279036
876.219	0.0285155
876.353	0.0272304
876.488	0.0280259
876.622	0.0280259
876.756	0.0273528
876.89	0.0280871
877.025	0.0279648
877.159	0.0282095
877.293	0.0273528
877.428	0.0281483
877.562	0.0279036
877.696	0.0280871
877.83	0.0281483
877.965	0.0274752
878.099	0.0279648
878.233	0.0267409
878.368	0.0275364
878.502	0.0271081
878.636	0.0282707
878.77	0.0274752
878.905	0.0274752
879.039	0.0277812
879.173	0.0273528
879.308	0.0279036
879.442	0.0279648
879.576	0.0280259
879.71	0.0287602
879.845	0.0276588
879.979	0.0278424
880.113	0.0271081
880.248	0.0269857
880.382	0.0275364
880.516	0.0279648
880.65	0.0278424
880.785	0.0280259
880.919	0.0278424
881.053	0.0282707
881.188	0.0274752
881.322	0.0280871
881.456	0.0283319
881.59	0.027414
881.725	0.0275364
881.859	0.0272304
881.993	0.02772
882.127	0.0277812
882.262	0.0285155
882.396	0.0275364
882.53	0.0281483
882.665	0.0275364
882.799	0.0280259
882.933	0.0286379
883.067	0.0280871
883.202	0.0275976
883.336	0.0269857
883.47	0.0275364
883.604	0.0275364
883.739	0.0275976
883.873	0.0280871
884.007	0.0283319
884.142	0.0271081
884.276	0.0277812
884.41	0.0278424
884.544	0.0275976
884.679	0.0279648
884.813	0.0275976
884.947	0.027414
885.081	0.0281483
885.216	0.0276588
885.35	0.0273528
885.484	0.0285155
885.618	0.0278424
885.753	0.02772
885.887	0.0288826
886.021	0.0273528
886.155	0.0276588
886.29	0.0277812
886.424	0.0288826
886.558	0.0280871
886.693	0.0284543
886.827	0.0269857
886.961	0.027414
887.095	0.0280259
887.23	0.027414
887.364	0.0277812
887.498	0.0269857
887.632	0.02772
887.767	0.0280259
887.901	0.0278424
888.035	0.02772
888.169	0.0276588
888.304	0.02772
888.438	0.0278424
888.572	0.0288826
888.706	0.027414
888.841	0.0279036
888.975	0.0274752
889.109	0.0285155
889.243	0.0273528
889.378	0.0280871
889.512	0.0280871
889.646	0.0281483
889.78	0.0273528
889.915	0.0280871
890.049	0.0275364
890.183	0.0279036
890.317	0.0272916
890.452	0.0280259
890.586	0.0276588
890.72	0.0275976
890.854	0.0282095
890.989	0.0280259
891.123	0.0271693
891.257	0.0283319
891.391	0.0285155
891.526	0.0281483
891.66	0.0282095
891.794	0.0283319
891.928	0.0278424
892.063	0.0277812
892.197	0.0278424
892.331	0.0272304
892.465	0.0271693
892.6	0.0288826
892.734	0.0279036
892.868	0.0277812
893.002	0.027414
893.137	0.02772
893.271	0.0279036
893.405	0.0274752
893.539	0.0284543
893.674	0.0280871
893.808	0.0290662
893.942	0.0282707
894.076	0.0278424
894.21	0.0269857
894.345	0.0280259
894.479	0.0275364
894.613	0.0272916
894.747	0.0276588
894.882	0.0272916
895.016	0.0274752
895.15	0.0282095
895.284	0.0275364
895.419	0.02772
895.553	0.0285767
895.687	0.0276588
895.821	0.0278424
895.956	0.027414
896.09	0.0282707
896.224	0.0285767
896.358	0.0280871
896.492	0.0271081
896.627	0.0276588
896.761	0.0273528
896.895	0.0285155
897.029	0.0282095
897.164	0.0279648
897.298	0.0285767
897.432	0.0280871
897.566	0.0279648
897.701	0.0280259
897.835	0.0279648
897.969	0.0279036
898.103	0.0271081
898.237	0.0278424
898.372	0.0278424
898.506	0.0283319
898.64	0.0286379
898.774	0.0292498
898.909	0.0282707
899.043	0.0282707
899.177	0.0282095
899.311	0.0275976
899.445	0.0281483
899.58	0.0277812
899.714	0.0275364
899.848	0.0278424
899.982	0.0275364
900.117	0.0274752
900.251	0.0275364
900.385	0.0279648
900.519	0.0282707
900.653	0.0279036
900.788	0.0280871
900.922	0.0269857
901.056	0.0277812
901.19	0.0281483
901.325	0.0275976
901.459	0.0273528
901.593	0.0284543
901.727	0.0277812
901.861	0.0275364
901.996	0.0283319
902.13	0.0274752
902.264	0.0280259
902.398	0.0283319
902.532	0.0283931
902.667	0.0272916
902.801	0.0279648
902.935	0.0288214
903.069	0.0276588
903.204	0.0278424
903.338	0.0277812
903.472	0.0283319
903.606	0.0280871
903.74	0.0276588
903.875	0.0269857
904.009	0.0280871
904.143	0.0282095
904.277	0.0282095
904.411	0.0279648
904.546	0.0275364
904.68	0.0277812
904.814	0.0268021
904.948	0.0283931
905.082	0.0269245
905.217	0.0270469
905.351	0.0273528
905.485	0.0279036
905.619	0.0280259
905.753	0.0275364
905.888	0.0280259
906.022	0.0270469
906.156	0.0274752
906.29	0.0275976
906.424	0.0275364
906.559	0.0277812
906.693	0.0271693
906.827	0.0276588
906.961	0.0279036
907.095	0.0278424
907.23	0.0272304
907.364	0.0276588
907.498	0.0270469
907.632	0.027414
907.766	0.0285767
907.901	0.0283319
908.035	0.0279036
908.169	0.0277812
908.303	0.0282095
908.437	0.029005
908.572	0.0262514
908.706	0.0275364
908.84	0.0280259
908.974	0.0285155
909.108	0.0275364
909.243	0.0275976
909.377	0.02772
909.511	0.0275976
909.645	0.0277812
909.779	0.0267409
909.914	0.027414
910.048	0.0286379
910.182	0.0262514
910.316	0.0283319
910.45	0.0271693
910.585	0.0276588
910.719	0.0277812
910.853	0.0269857
910.987	0.0279648
911.121	0.0277812
911.255	0.0274752
911.39	0.0281483
911.524	0.0271693
911.658	0.02772
911.792	0.0275976
911.926	0.0272304
912.061	0.0274752
912.195	0.0281483
912.329	0.0276588
912.463	0.0273528
912.597	0.0277812
912.732	0.0279648
912.866	0.0279036
913	0.0280871
913.134	0.0286379
913.268	0.0277812
913.402	0.0275364
913.537	0.0281483
913.671	0.0279036
913.805	0.0286991
913.939	0.0277812
914.073	0.0272304
914.208	0.0274752
914.342	0.0279648
914.476	0.0276588
914.61	0.0275976
914.744	0.0279036
914.878	0.0281483
915.013	0.0272304
915.147	0.027414
915.281	0.0276588
915.415	0.0272304
915.549	0.0274752
915.683	0.0280871
915.818	0.0278424
915.952	0.0291274
916.086	0.0279648
916.22	0.0282707
916.354	0.0268633
916.488	0.02772
916.623	0.0280259
916.757	0.0277812
916.891	0.0277812
917.025	0.0278424
917.159	0.0283319
917.293	0.0275976
917.428	0.02772
917.562	0.0282095
917.696	0.0287602
917.83	0.0271693
917.964	0.0280871
918.098	0.0279648
918.233	0.0279648
918.367	0.0284543
918.501	0.0274752
918.635	0.0280259
918.769	0.0280259
918.903	0.0273528
919.038	0.0278424
919.172	0.0279648
919.306	0.027414
919.44	0.0277812
919.574	0.0281483
919.708	0.0271693
919.843	0.0282095
919.977	0.0286379
920.111	0.0271693
920.245	0.0276588
920.379	0.0275364
920.513	0.0274752
920.648	0.0276588
920.782	0.0270469
920.916	0.0275976
921.05	0.0278424
921.184	0.0275364
921.318	0.02772
921.453	0.02772
921.587	0.0274752
921.721	0.0277812
921.855	0.0283319
921.989	0.0276588
922.123	0.0276588
922.257	0.0283931
922.392	0.0273528
922.526	0.0283319
922.66	0.0284543
922.794	0.0266797
922.928	0.0274752
923.062	0.0283319
923.197	0.0267409
923.331	0.0274752
923.465	0.0271081
923.599	0.0275364
923.733	0.02772
923.867	0.0278424
924.001	0.0282707
924.136	0.0278424
924.27	0.0278424
924.404	0.0286379
924.538	0.02772
924.672	0.0285155
924.806	0.0278424
924.94	0.0278424
925.075	0.0275976
925.209	0.0279036
925.343	0.0285155
925.477	0.0271081
925.611	0.0279648
925.745	0.0272304
925.879	0.0282095
926.014	0.0288214
926.148	0.0276588
926.282	0.0271693
926.416	0.0277812
926.55	0.0278424
926.684	0.02772
926.818	0.0286379
926.953	0.0281483
927.087	0.0271693
927.221	0.0275976
927.355	0.0272916
927.489	0.0278424
927.623	0.0286991
927.757	0.0277812
927.892	0.0274752
928.026	0.0274752
928.16	0.0269245
928.294	0.0278424
928.428	0.0271693
928.562	0.0282095
928.696	0.0268633
928.831	0.0283931
928.965	0.0282095
929.099	0.0269857
929.233	0.0275976
929.367	0.0269245
929.501	0.0277812
929.635	0.0273528
929.769	0.0284543
929.904	0.0283931
930.038	0.0280871
930.172	0.0285767
930.306	0.0285155
930.44	0.0282095
930.574	0.0275976
930.708	0.0277812
930.843	0.0283319
930.977	0.0282707
931.111	0.0282707
931.245	0.0271693
931.379	0.0280259
931.513	0.0282095
931.647	0.02772
931.781	0.0285155
931.916	0.0282707
932.05	0.0280259
932.184	0.0275976
932.318	0.0283319
932.452	0.02772
932.586	0.0280871
932.72	0.027414
932.854	0.0278424
932.989	0.0283319
933.123	0.0282707
933.257	0.0270469
933.391	0.0279648
933.525	0.0282707
933.659	0.02772
933.793	0.0282095
933.927	0.0280871
934.061	0.0284543
934.196	0.0271081
934.33	0.0282095
934.464	0.0279036
934.598	0.0282095
934.732	0.0285767
934.866	0.0282707
935	0.0278424
935.134	0.0278424
935.269	0.0284543
935.403	0.0274752
935.537	0.027414
935.671	0.0280871
935.805	0.0279036
935.939	0.0285767
936.073	0.0280259
936.207	0.0282707
936.341	0.027414
936.476	0.0272916
936.61	0.0286379
936.744	0.0273528
936.878	0.0279036
937.012	0.0279648
937.146	0.0278424
937.28	0.026435
937.414	0.0280871
937.548	0.0279648
937.683	0.0279036
937.817	0.0277812
937.951	0.0276588
938.085	0.0277812
938.219	0.0280871
938.353	0.0274752
938.487	0.0279036
938.621	0.0283319
938.755	0.0281483
938.889	0.0283319
939.024	0.027414
939.158	0.0282707
939.292	0.0280259
939.426	0.0275364
939.56	0.0273528
939.694	0.0282095
939.828	0.0288214
939.962	0.0279648
940.096	0.0276588
940.231	0.027414
940.365	0.0278424
940.499	0.02772
940.633	0.0282095
940.767	0.027414
940.901	0.02772
941.035	0.0278424
941.169	0.0282707
941.303	0.02772
941.437	0.0278424
941.571	0.0275364
941.706	0.0265573
941.84	0.0279648
941.974	0.0278424
942.108	0.0279648
942.242	0.0283931
942.376	0.0275976
942.51	0.0278424
942.644	0.0274752
942.778	0.0274752
942.912	0.02772
943.047	0.0279036
943.181	0.0278424
943.315	0.027414
943.449	0.0284543
943.583	0.0272916
943.717	0.0280259
943.851	0.0278424
943.985	0.0263126
944.119	0.02772
944.253	0.0282707
944.387	0.0275364
944.522	0.0276588
944.656	0.0280871
944.79	0.02772
944.924	0.0280871
945.058	0.0271693
945.192	0.0271693
945.326	0.02772
945.46	0.0287602
945.594	0.0279648
945.728	0.0280259
945.862	0.027414
945.996	0.0283319
946.131	0.02772
946.265	0.0277812
946.399	0.0270469
946.533	0.0279036
946.667	0.0282707
946.801	0.0278424
946.935	0.0274752
947.069	0.0281483
947.203	0.0285155
947.337	0.0276588
947.471	0.0278424
947.605	0.027414
947.739	0.0272916
947.874	0.0280871
948.008	0.0271693
948.142	0.0275976
948.276	0.0279648
948.41	0.0277812
948.544	0.0272304
948.678	0.0272304
948.812	0.0269245
948.946	0.0285767
949.08	0.0273528
949.214	0.0273528
949.348	0.0275364
949.482	0.0277812
949.617	0.0274752
949.751	0.0277812
949.885	0.0275364
950.019	0.0283931
950.153	0.0271081
950.287	0.0280871
950.421	0.0275976
950.555	0.0284543
950.689	0.0272916
950.823	0.0280871
950.957	0.0275976
951.091	0.0281483
951.225	0.0280259
951.359	0.0278424
951.493	0.0287602
951.628	0.0270469
951.762	0.0277812
951.896	0.0279036
952.03	0.0278424
952.164	0.0285767
952.298	0.0278424
952.432	0.0274752
952.566	0.0282095
952.7	0.0286379
952.834	0.0274752
952.968	0.0283319
953.102	0.0274752
953.236	0.0282707
953.37	0.0282707
953.504	0.0282095
953.639	0.0272916
953.773	0.0269857
953.907	0.0283319
954.041	0.0276588
954.175	0.0277812
954.309	0.0276588
954.443	0.0278424
954.577	0.0274752
954.711	0.0273528
954.845	0.0280871
954.979	0.0280259
955.113	0.0276588
955.247	0.0268633
955.381	0.0283931
955.515	0.0278424
955.649	0.0282707
955.783	0.0280871
955.917	0.0272916
956.052	0.0279036
956.186	0.02772
956.32	0.0280871
956.454	0.0272304
956.588	0.0277812
956.722	0.0275976
956.856	0.0278424
956.99	0.0275976
957.124	0.02772
957.258	0.0272304
957.392	0.0273528
957.526	0.0287602
957.66	0.027414
957.794	0.0284543
957.928	0.0275364
958.062	0.0274752
958.196	0.0275364
958.33	0.0278424
958.464	0.0280871
958.598	0.0283319
958.733	0.0275364
958.867	0.0277812
959.001	0.0272304
959.135	0.0273528
959.269	0.0272916
959.403	0.0282707
959.537	0.0285767
959.671	0.0283319
959.805	0.0268633
959.939	0.0285767
960.073	0.0278424
960.207	0.02772
960.341	0.0275364
960.475	0.0282095
960.609	0.0287602
960.743	0.0278424
960.877	0.0283931
961.011	0.0282707
961.145	0.0285767
961.279	0.0277812
961.413	0.0280259
961.547	0.0279036
961.681	0.0280871
961.815	0.0275976
961.949	0.0278424
962.083	0.0275976
962.218	0.0276588
962.352	0.0282707
962.486	0.0280259
962.62	0.0276588
962.754	0.0280259
962.888	0.0281483
963.022	0.0275364
963.156	0.0284543
963.29	0.0290662
963.424	0.0282707
963.558	0.0277812
963.692	0.0282707
963.826	0.0279648
963.96	0.0280871
964.094	0.0285155
964.228	0.0281483
964.362	0.0283931
964.496	0.0274752
964.63	0.029311
964.764	0.027414
964.898	0.0273528
965.032	0.0275364
965.166	0.0279036
965.3	0.0276588
965.434	0.0268633
965.568	0.0279036
965.702	0.0277812
965.836	0.0269245
965.97	0.0282707
966.104	0.0282707
966.238	0.0280871
966.372	0.0275976
966.506	0.0276588
966.64	0.0275364
966.774	0.02772
966.908	0.02772
967.043	0.0272304
967.177	0.0282707
967.311	0.0281483
967.445	0.0271081
967.579	0.027414
967.713	0.0273528
967.847	0.0272304
967.981	0.0273528
968.115	0.0282707
968.249	0.027414
968.383	0.0281483
968.517	0.0272916
968.651	0.0278424
968.785	0.0284543
968.919	0.0280259
969.053	0.0272304
969.187	0.0279036
969.321	0.0283319
969.455	0.0272916
969.589	0.0272916
969.723	0.0272916
969.857	0.0272304
969.991	0.0271693
970.125	0.0275976
970.259	0.0272304
970.393	0.0271081
970.527	0.0279648
970.661	0.0275976
970.795	0.02772
970.929	0.0285155
971.063	0.0281483
971.197	0.0285155
971.331	0.0271693
971.465	0.0280871
971.599	0.0279648
971.733	0.0279036
971.867	0.0279036
972.001	0.0276588
972.135	0.0280259
972.269	0.0284543
972.403	0.0280259
972.537	0.0285155
972.671	0.0285155
972.805	0.0285155
972.939	0.0282707
973.073	0.0275976
973.207	0.0280871
973.341	0.0283931
973.475	0.02772
973.609	0.0280871
973.743	0.0276588
973.877	0.0275976
974.011	0.0275364
974.145	0.0275976
974.279	0.0280259
974.413	0.0282707
974.547	0.0272916
974.681	0.0280259
974.815	0.0278424
974.949	0.0280259
975.083	0.02772
975.217	0.0278424
975.351	0.0279036
975.485	0.0282095
975.619	0.0279036
975.753	0.0275364
975.887	0.0282095
976.021	0.0279648
976.155	0.0275976
976.289	0.0282095
976.423	0.0269245
976.557	0.0273528
976.691	0.0274752
976.825	0.0278424
976.959	0.0278424
977.093	0.0279648
977.227	0.0275976
977.361	0.0275976
977.495	0.0275976
977.629	0.0275364
977.763	0.0285155
977.897	0.0274752
978.031	0.02772
978.165	0.0274752
978.299	0.0276588
978.433	0.0273528
978.567	0.0275976
978.701	0.02772
978.835	0.0274752
978.969	0.0274752
979.103	0.0279648
979.237	0.027414
979.371	0.0281483
979.505	0.0273528
979.639	0.027414
979.773	0.027414
979.907	0.0275364
980.041	0.0286379
980.175	0.0283319
980.308	0.0283931
980.442	0.0281483
980.576	0.027414
980.71	0.0273528
980.844	0.0281483
980.978	0.0283931
981.112	0.0283931
981.246	0.0280259
981.38	0.0290662
981.514	0.0269245
981.648	0.0282095
981.782	0.0280259
981.916	0.0280871
982.05	0.0280259
982.184	0.0270469
982.318	0.02772
982.452	0.0270469
982.586	0.02772
982.72	0.0276588
982.854	0.0277812
982.988	0.0279648
983.122	0.0272916
983.256	0.0283319
983.39	0.0280259
983.524	0.0271693
983.658	0.0275364
983.792	0.027414
983.926	0.0282095
984.06	0.0285767
984.194	0.0285155
984.328	0.0282095
984.462	0.0283931
984.596	0.0275976
984.73	0.0283931
984.864	0.027414
984.998	0.0269857
985.132	0.02772
985.265	0.0277812
985.399	0.0285155
985.533	0.02772
985.667	0.02772
985.801	0.0277812
985.935	0.0280871
986.069	0.0274752
986.203	0.0277812
986.337	0.0268021
986.471	0.0283319
986.605	0.0280259
986.739	0.0281483
986.873	0.0286379
987.007	0.0282095
987.141	0.0281483
987.275	0.0274752
987.409	0.0278424
987.543	0.02772
987.677	0.0281483
987.811	0.0275976
987.945	0.0276588
988.079	0.0269857
988.213	0.0273528
988.347	0.0273528
988.481	0.0279036
988.614	0.0269245
988.748	0.0272304
988.882	0.0269245
989.016	0.0273528
989.15	0.0272304
989.284	0.0275364
989.418	0.0285767
989.552	0.0273528
989.686	0.027414
989.82	0.02772
989.954	0.0279648
990.088	0.027414
990.222	0.0285767
990.356	0.0283931
990.49	0.0269245
990.624	0.0274752
990.758	0.0279036
990.892	0.0280871
991.026	0.0276588
991.16	0.0277812
991.294	0.0278424
991.427	0.0270469
991.561	0.0269857
991.695	0.0272304
991.829	0.0279036
991.963	0.0279036
992.097	0.0272304
992.231	0.0274752
992.365	0.0284543
992.499	0.0268021
992.633	0.0280259
992.767	0.0278424
992.901	0.0285155
993.035	0.0278424
993.169	0.0274752
993.303	0.0282095
993.437	0.0275364
993.571	0.0279648
993.704	0.0274752
993.838	0.0271081
993.972	0.0282707
994.106	0.02772
994.24	0.0275364
994.374	0.0268633
994.508	0.0275364
994.642	0.0274752
994.776	0.0275364
994.91	0.0278424
995.044	0.0279036
995.178	0.0271081
995.312	0.0279648
995.446	0.0284543
995.58	0.0279648
995.714	0.027414
995.847	0.0275364
995.981	0.0271081
996.115	0.0282095
996.249	0.0274752
996.383	0.0280871
996.517	0.0277812
996.651	0.0278424
996.785	0.0286991
996.919	0.0276588
997.053	0.0271081
997.187	0.0283319
997.321	0.0280871
997.455	0.0272916
997.589	0.0277812
997.722	0.0276588
997.856	0.0279036
997.99	0.0280871
998.124	0.0280259
998.258	0.0270469
998.392	0.02772
998.526	0.0279036
998.66	0.0275976
998.794	0.0276588
998.928	0.0283319
999.062	0.0277812
999.196	0.027414
999.33	0.0279648
999.464	0.0281483
999.597	0.0280259
999.731	0.0275364
999.865	0.0274752
999.999	0.0282707
1000.13	0.0279036
1000.27	0.0273528
1000.4	0.0280871
1000.53	0.0275364
1000.67	0.0289438
1000.8	0.0272916
1000.94	0.0282707
1001.07	0.0280871
1001.2	0.0273528
1001.34	0.0280259
1001.47	0.0279648
1001.61	0.0281483
1001.74	0.0267409
1001.87	0.0280871
1002.01	0.0279036
1002.14	0.0283931
1002.28	0.0275976
1002.41	0.0279036
1002.54	0.0279648
1002.68	0.0269857
1002.81	0.0289438
1002.95	0.0282095
1003.08	0.0275976
1003.21	0.0288214
1003.35	0.0284543
1003.48	0.0282095
1003.61	0.0271693
1003.75	0.0286991
1003.88	0.0271693
1004.02	0.0280259
1004.15	0.0276588
1004.28	0.0280871
1004.42	0.0275364
1004.55	0.0282707
1004.69	0.0286379
1004.82	0.0279648
1004.95	0.0272304
1005.09	0.0283931
1005.22	0.0268021
1005.36	0.0271081
1005.49	0.0275976
1005.62	0.0283931
1005.76	0.0267409
1005.89	0.0288214
1006.03	0.0274752
1006.16	0.0282707
1006.29	0.0272304
1006.43	0.0275364
1006.56	0.0280259
1006.69	0.0280259
1006.83	0.027414
1006.96	0.02772
1007.1	0.0277812
1007.23	0.02772
1007.36	0.0285767
1007.5	0.0268021
1007.63	0.0277812
1007.77	0.0285155
1007.9	0.0276588
1008.03	0.0280871
1008.17	0.027414
1008.3	0.0282095
1008.44	0.0274752
1008.57	0.0288214
1008.7	0.0274752
1008.84	0.0270469
1008.97	0.0274752
1009.1	0.0278424
1009.24	0.0280259
1009.37	0.0277812
1009.51	0.0276588
1009.64	0.0279648
1009.77	0.0285767
1009.91	0.0276588
1010.04	0.0274752
1010.18	0.0276588
1010.31	0.0275976
1010.44	0.0279036
1010.58	0.0292498
1010.71	0.027414
1010.85	0.0285155
1010.98	0.0282095
1011.11	0.0269245
1011.25	0.0271081
1011.38	0.0279648
1011.51	0.02772
1011.65	0.0280871
1011.78	0.0272916
1011.92	0.0285767
1012.05	0.0288214
1012.18	0.0275364
1012.32	0.0268021
1012.45	0.0283319
1012.59	0.0276588
1012.72	0.0275976
1012.85	0.0282095
1012.99	0.0283931
1013.12	0.0272916
1013.26	0.0285155
1013.39	0.0277812
1013.52	0.0270469
1013.66	0.0280871
1013.79	0.027414
1013.92	0.0275976
1014.06	0.0275976
1014.19	0.0271081
1014.33	0.0282095
1014.46	0.0275976
1014.59	0.0275976
1014.73	0.0280871
1014.86	0.0272916
1015	0.0275364
1015.13	0.026435
1015.26	0.0281483
1015.4	0.0289438
1015.53	0.0280259
1015.67	0.0276588
1015.8	0.0275364
1015.93	0.0271693
1016.07	0.0279036
1016.2	0.0278424
1016.33	0.0281483
1016.47	0.02772
1016.6	0.0272304
1016.74	0.0265573
1016.87	0.0280871
1017	0.0277812
1017.14	0.0278424
1017.27	0.0280259
1017.41	0.0273528
1017.54	0.0275976
1017.67	0.0271081
1017.81	0.02772
1017.94	0.0279036
1018.07	0.0282095
1018.21	0.027414
1018.34	0.0277812
1018.48	0.02772
1018.61	0.027414
1018.74	0.0278424
1018.88	0.0278424
1019.01	0.0280259
1019.15	0.0276588
1019.28	0.02772
1019.41	0.0274752
1019.55	0.0281483
1019.68	0.0275976
1019.82	0.0280871
1019.95	0.0278424
1020.08	0.0282707
1020.22	0.0282707
1020.35	0.0263738
1020.48	0.02772
1020.62	0.0278424
1020.75	0.0278424
1020.89	0.0282095
1021.02	0.0280871
1021.15	0.0278424
1021.29	0.0285155
1021.42	0.0271081
1021.56	0.027414
1021.69	0.0269857
1021.82	0.0267409
1021.96	0.0284543
1022.09	0.0275976
1022.22	0.0275364
1022.36	0.0287602
1022.49	0.0275364
1022.63	0.0282707
1022.76	0.0275364
1022.89	0.0275364
1023.03	0.0283319
1023.16	0.0284543
1023.3	0.0279648
1023.43	0.0283319
1023.56	0.0282707
1023.7	0.0279036
1023.83	0.0271693
1023.96	0.0274752
1024.1	0.0282707
1024.23	0.0273528
1024.37	0.0280259
1024.5	0.027414
1024.63	0.0272916
1024.77	0.0276588
1024.9	0.0280871
1025.04	0.0281483
1025.17	0.0287602
1025.3	0.0279648
1025.44	0.0274752
1025.57	0.0282707
1025.7	0.0281483
1025.84	0.0273528
1025.97	0.0271081
1026.11	0.0282707
1026.24	0.0271081
1026.37	0.02772
1026.51	0.0272916
1026.64	0.0283931
1026.78	0.0280871
1026.91	0.0285155
1027.04	0.0267409
1027.18	0.0275364
1027.31	0.0276588
1027.44	0.0274752
1027.58	0.0285155
1027.71	0.0269857
1027.85	0.0282707
1027.98	0.0283319
1028.11	0.0277812
1028.25	0.0274752
1028.38	0.0281483
1028.52	0.0286379
1028.65	0.0281483
1028.78	0.0280871
1028.92	0.0280871
1029.05	0.0275364
1029.18	0.0281483
1029.32	0.0276588
1029.45	0.0277812
1029.59	0.0285767
1029.72	0.0279648
1029.85	0.0280871
1029.99	0.029005
1030.12	0.0277812
1030.26	0.0279036
1030.39	0.0278424
1030.52	0.0269245
1030.66	0.02772
1030.79	0.0279648
1030.92	0.0279648
1031.06	0.0276588
1031.19	0.0280259
1031.33	0.0287602
1031.46	0.0277812
1031.59	0.0271693
1031.73	0.0274752
1031.86	0.0272916
1031.99	0.0275364
1032.13	0.0280259
1032.26	0.0287602
1032.4	0.0278424
1032.53	0.0282707
1032.66	0.0287602
1032.8	0.0272304
1032.93	0.0276588
1033.07	0.0283931
1033.2	0.0270469
1033.33	0.0275976
1033.47	0.0279648
1033.6	0.02772
1033.73	0.0271693
1033.87	0.0272916
1034	0.0268021
1034.14	0.0280871
1034.27	0.0266797
1034.4	0.0275976
1034.54	0.0279648
1034.67	0.0273528
1034.81	0.02772
1034.94	0.02772
1035.07	0.0277812
1035.21	0.0279648
1035.34	0.0275364
1035.47	0.0282707
1035.61	0.0270469
1035.74	0.0276588
1035.88	0.0278424
1036.01	0.0278424
1036.14	0.0286991
1036.28	0.0274752
1036.41	0.0274752
1036.54	0.0281483
1036.68	0.0275364
1036.81	0.0273528
1036.95	0.0276588
1037.08	0.02772
1037.21	0.0274752
1037.35	0.02772
1037.48	0.02772
1037.62	0.0284543
1037.75	0.0280871
1037.88	0.0285767
1038.02	0.0293722
1038.15	0.0277812
1038.28	0.0274752
1038.42	0.0275364
1038.55	0.0278424
1038.69	0.02772
1038.82	0.0277812
1038.95	0.0276588
1039.09	0.0285155
1039.22	0.0277812
1039.35	0.0280259
1039.49	0.0275976
1039.62	0.0283319
1039.76	0.0281483
1039.89	0.0282707
1040.02	0.0284543
1040.16	0.0282095
1040.29	0.02772
1040.43	0.0281483
1040.56	0.027414
1040.69	0.0276588
1040.83	0.0283319
1040.96	0.0272916
1041.09	0.027414
1041.23	0.0275364
1041.36	0.0274752
1041.5	0.0272304
1041.63	0.0278424
1041.76	0.0269245
1041.9	0.0271693
1042.03	0.0276588
1042.16	0.0279036
1042.3	0.0272304
1042.43	0.0282095
1042.57	0.0273528
1042.7	0.0273528
1042.83	0.0267409
1042.97	0.0289438
1043.1	0.027414
1043.23	0.0277812
1043.37	0.0271081
1043.5	0.0285767
1043.64	0.0279648
1043.77	0.0284543
1043.9	0.0279036
1044.04	0.0272304
1044.17	0.0282095
1044.31	0.0279648
1044.44	0.0275976
1044.57	0.0277812
1044.71	0.0280259
1044.84	0.0272304
1044.97	0.0283319
1045.11	0.0273528
1045.24	0.0277812
1045.38	0.0275364
1045.51	0.0276588
1045.64	0.0278424
1045.78	0.0276588
1045.91	0.0284543
1046.04	0.0285767
1046.18	0.0275976
1046.31	0.0288826
1046.45	0.0275976
1046.58	0.0275364
1046.71	0.0274752
1046.85	0.0275364
1046.98	0.0282095
1047.11	0.0273528
1047.25	0.0275976
1047.38	0.0282707
1047.52	0.0280259
1047.65	0.0273528
1047.78	0.0274752
1047.92	0.0283931
1048.05	0.0270469
1048.18	0.0279036
1048.32	0.027414
1048.45	0.0277812
1048.59	0.0282095
1048.72	0.0276588
1048.85	0.0283319
1048.99	0.0282707
1049.12	0.0277812
1049.25	0.02772
1049.39	0.0279648
1049.52	0.0277812
1049.66	0.0281483
1049.79	0.02772
1049.92	0.0269857
1050.06	0.027414
1050.19	0.0283319
1050.33	0.0263738
1050.46	0.027414
1050.59	0.0272916
1050.73	0.0276588
1050.86	0.0277812
1050.99	0.0275976
1051.13	0.027414
1051.26	0.0277812
1051.4	0.0279648
1051.53	0.0269245
1051.66	0.02772
1051.8	0.0271693
1051.93	0.0279648
1052.06	0.0280259
1052.2	0.0283931
1052.33	0.0280259
1052.47	0.0280259
1052.6	0.0279648
1052.73	0.0273528
1052.87	0.0287602
1053	0.0278424
1053.13	0.0284543
1053.27	0.0279036
1053.4	0.0285767
1053.54	0.0272304
1053.67	0.0287602
1053.8	0.0278424
1053.94	0.0275364
1054.07	0.0279648
1054.2	0.0275364
1054.34	0.0275364
1054.47	0.0279648
1054.61	0.0280259
1054.74	0.0282707
1054.87	0.0282095
1055.01	0.0286379
1055.14	0.0276588
1055.27	0.0275976
1055.41	0.02772
1055.54	0.0278424
1055.68	0.0273528
1055.81	0.0275364
1055.94	0.0278424
1056.08	0.0292498
1056.21	0.0280871
1056.34	0.0281483
1056.48	0.0280871
1056.61	0.0283319
1056.75	0.0275976
1056.88	0.0279648
1057.01	0.0281483
1057.15	0.0274752
1057.28	0.0279036
1057.41	0.0272916
1057.55	0.02772
1057.68	0.0279036
1057.82	0.0278424
1057.95	0.0281483
1058.08	0.0272304
1058.22	0.0274752
1058.35	0.027414
1058.48	0.0275364
1058.62	0.0277812
1058.75	0.0279036
1058.89	0.0277812
1059.02	0.0280871
1059.15	0.0280259
1059.29	0.0279648
1059.42	0.0274752
1059.55	0.0289438
1059.69	0.0281483
1059.82	0.0263126
1059.96	0.0273528
1060.09	0.0277812
1060.22	0.0270469
1060.36	0.0270469
1060.49	0.0268021
1060.62	0.02772
1060.76	0.0283931
1060.89	0.0274752
1061.03	0.0282707
1061.16	0.0277812
1061.29	0.0282095
1061.43	0.0281483
1061.56	0.0278424
1061.69	0.0284543
1061.83	0.0283319
1061.96	0.0280871
1062.1	0.0280871
1062.23	0.0273528
1062.36	0.027414
1062.5	0.0279648
1062.63	0.0274752
1062.76	0.0283319
1062.9	0.0279648
1063.03	0.0271693
1063.17	0.0274752
1063.3	0.0277812
1063.43	0.0273528
1063.57	0.027414
1063.7	0.0276588
1063.83	0.0275364
1063.97	0.0284543
1064.1	0.0281483
1064.23	0.0280259
1064.37	0.0282095
1064.5	0.0282095
1064.64	0.0276588
1064.77	0.0285155
1064.9	0.0270469
1065.04	0.0274752
1065.17	0.0272916
1065.3	0.027414
1065.44	0.0288826
1065.57	0.0273528
1065.71	0.0288214
1065.84	0.0273528
1065.97	0.0281483
1066.11	0.0275364
1066.24	0.0276588
1066.37	0.027414
1066.51	0.0279036
1066.64	0.0283319
1066.78	0.0273528
1066.91	0.0275364
1067.04	0.0277812
1067.18	0.0279036
1067.31	0.02772
1067.44	0.0279036
1067.58	0.0280259
1067.71	0.02772
1067.85	0.0268633
1067.98	0.0284543
1068.11	0.0280259
1068.25	0.0276588
1068.38	0.0278424
1068.51	0.0277812
1068.65	0.0286379
1068.78	0.0276588
1068.92	0.0278424
1069.05	0.0283931
1069.18	0.027414
1069.32	0.0281483
1069.45	0.0273528
1069.58	0.0278424
1069.72	0.0275976
1069.85	0.0283319
1069.98	0.02772
1070.12	0.0277812
1070.25	0.0282707
1070.39	0.0279648
1070.52	0.0270469
1070.65	0.0279036
1070.79	0.0279648
1070.92	0.0272916
1071.05	0.0272304
1071.19	0.0280871
1071.32	0.0286379
1071.46	0.0273528
1071.59	0.0276588
1071.72	0.0275976
1071.86	0.0282095
1071.99	0.0277812
1072.12	0.0273528
1072.26	0.0279036
1072.39	0.0281483
1072.53	0.0277812
1072.66	0.0283931
1072.79	0.0279648
1072.93	0.0274752
1073.06	0.027414
1073.19	0.0272304
1073.33	0.0282095
1073.46	0.0281483
1073.59	0.0282707
1073.73	0.0284543
1073.86	0.0280871
1074	0.0285767
1074.13	0.0268021
1074.26	0.0280871
1074.4	0.0269857
1074.53	0.0272916
1074.66	0.0285155
1074.8	0.0271081
1074.93	0.0281483
1075.07	0.0278424
1075.2	0.0286991
1075.33	0.0275976
1075.47	0.0273528
1075.6	0.02772
1075.73	0.0271081
1075.87	0.0279036
1076	0.0281483
1076.14	0.0286379
1076.27	0.0276588
1076.4	0.0270469
1076.54	0.0275976
1076.67	0.0282095
1076.8	0.0276588
1076.94	0.02772
1077.07	0.0275976
1077.2	0.0280871
1077.34	0.0276588
1077.47	0.0280871
1077.61	0.0282095
1077.74	0.0279648
1077.87	0.0275364
1078.01	0.0269857
1078.14	0.0276588
1078.27	0.0279036
1078.41	0.0285155
1078.54	0.0271081
1078.68	0.0277812
1078.81	0.0277812
1078.94	0.0278424
1079.08	0.0274752
1079.21	0.0280259
1079.34	0.0278424
1079.48	0.0285155
1079.61	0.0268633
1079.74	0.0277812
1079.88	0.0277812
1080.01	0.0275364
1080.15	0.0280259
1080.28	0.0276588
1080.41	0.02772
1080.55	0.0275976
1080.68	0.0282095
1080.81	0.0282707
1080.95	0.0272304
1081.08	0.0276588
1081.22	0.0277812
1081.35	0.0271693
1081.48	0.0271693
1081.62	0.0271693
1081.75	0.027414
1081.88	0.0282707
1082.02	0.0277812
1082.15	0.027414
1082.28	0.0282707
1082.42	0.0272304
1082.55	0.0275364
1082.69	0.0278424
1082.82	0.0273528
1082.95	0.0277812
1083.09	0.0275976
1083.22	0.0279036
1083.35	0.0281483
1083.49	0.0279036
1083.62	0.0280259
1083.75	0.0283319
1083.89	0.0279648
1084.02	0.0271081
1084.16	0.0276588
1084.29	0.0275976
1084.42	0.0271081
1084.56	0.0275364
1084.69	0.0275976
1084.82	0.0265573
1084.96	0.0287602
1085.09	0.0280871
1085.23	0.0276588
1085.36	0.0271081
1085.49	0.0281483
1085.63	0.0281483
1085.76	0.0272304
1085.89	0.0271693
1086.03	0.02772
1086.16	0.0285767
1086.29	0.0277812
1086.43	0.0274752
1086.56	0.0286991
1086.7	0.0280259
1086.83	0.0279036
1086.96	0.0273528
1087.1	0.0285155
1087.23	0.0281483
1087.36	0.0279648
1087.5	0.0271693
1087.63	0.02772
1087.76	0.0267409
1087.9	0.0280259
1088.03	0.0276588
1088.17	0.0273528
1088.3	0.0281483
1088.43	0.0272916
1088.57	0.0272304
1088.7	0.0275364
1088.83	0.0281483
1088.97	0.0273528
1089.1	0.0271081
1089.24	0.0282095
1089.37	0.0275976
1089.5	0.0281483
1089.64	0.027414
1089.77	0.0279036
1089.9	0.0277812
1090.04	0.0271081
1090.17	0.0272304
1090.3	0.0280871
1090.44	0.0269857
1090.57	0.0283319
1090.71	0.0283319
1090.84	0.0280259
1090.97	0.0282707
1091.11	0.0277812
1091.24	0.0276588
1091.37	0.0280259
1091.51	0.0274752
1091.64	0.0279036
1091.77	0.027414
1091.91	0.0279036
1092.04	0.0275364
1092.18	0.0282095
1092.31	0.0280871
1092.44	0.0272304
1092.58	0.0276588
1092.71	0.0279036
1092.84	0.0272916
1092.98	0.0286991
1093.11	0.0279036
1093.24	0.0275976
1093.38	0.0282095
1093.51	0.0283319
1093.65	0.0282095
1093.78	0.0285767
1093.91	0.0282095
1094.05	0.0279648
1094.18	0.0271081
1094.31	0.0275976
1094.45	0.0283319
1094.58	0.0287602
1094.71	0.0283931
1094.85	0.0283319
1094.98	0.0271081
1095.12	0.0282707
1095.25	0.027414
1095.38	0.0270469
1095.52	0.02772
1095.65	0.0276588
1095.78	0.0281483
1095.92	0.0284543
1096.05	0.0276588
1096.18	0.0282095
1096.32	0.0285155
1096.45	0.0280259
1096.59	0.0273528
1096.72	0.0276588
1096.85	0.0278424
1096.99	0.0282095
1097.12	0.0275364
1097.25	0.0274752
1097.39	0.0271081
1097.52	0.02772
1097.65	0.0271693
1097.79	0.02772
1097.92	0.0282707
1098.06	0.0273528
1098.19	0.0273528
1098.32	0.0281483
1098.46	0.0266797
1098.59	0.02772
1098.72	0.0282095
1098.86	0.0279648
1098.99	0.0280871
1099.12	0.02772
1099.26	0.0275976
1099.39	0.0281483
1099.53	0.0282707
1099.66	0.0278424
1099.79	0.0291274
1099.93	0.0280259
1100.06	0.0264961
1100.19	0.0283319
1100.33	0.0280871
1100.46	0.0266797
1100.59	0.0277812
1100.73	0.0274752
1100.86	0.0282095
1100.99	0.0282095
1101.13	0.0278424
1101.26	0.0288826
1101.4	0.0272304
1101.53	0.0287602
1101.66	0.0273528
1101.8	0.0282095
1101.93	0.0283319
1102.06	0.0276588
1102.2	0.0268633
1102.33	0.0285155
1102.46	0.0282095
1102.6	0.0272304
1102.73	0.0275364
1102.87	0.0282095
1103	0.0272304
1103.13	0.0274752
1103.27	0.0285155
1103.4	0.0275364
1103.53	0.0272304
1103.67	0.0274752
1103.8	0.0291274
1103.93	0.0279648
1104.07	0.0275976
1104.2	0.0280871
1104.34	0.0280871
1104.47	0.0275976
1104.6	0.0272304
1104.74	0.0282707
1104.87	0.0278424
1105	0.0282707
1105.14	0.0283319
1105.27	0.027414
1105.4	0.02772
1105.54	0.02772
1105.67	0.0279648
1105.8	0.0277812
1105.94	0.0279648
1106.07	0.0288214
1106.21	0.0271693
1106.34	0.0282707
1106.47	0.0266797
1106.61	0.0284543
1106.74	0.0270469
1106.87	0.0270469
1107.01	0.0280259
1107.14	0.0272304
1107.27	0.0280259
1107.41	0.0269857
1107.54	0.0275976

