Source: Spectrum Viewer

Chart: Pulse Spectrum

Series: 
Wavelength (nm)	S (a.u.)
617.638	0.0278034
617.773	0.0278649
617.908	0.0275574
618.043	0.0273113
618.178	0.0280495
618.313	0.0289106
618.448	0.0274958
618.583	0.028111
618.718	0.0288491
618.853	0.0286646
618.988	0.0285416
619.123	0.0274958
619.258	0.0279264
619.394	0.0282955
619.529	0.0276189
619.664	0.0290952
619.799	0.028111
619.934	0.0284185
620.069	0.0274958
620.204	0.0279879
620.339	0.028111
620.474	0.0278034
620.609	0.0284185
620.744	0.0276189
620.879	0.0279879
621.014	0.02848
621.149	0.0281725
621.284	0.0276804
621.419	0.0268192
621.554	0.0276189
621.689	0.0281725
621.825	0.0278034
621.96	0.0272498
622.095	0.0276189
622.23	0.0286031
622.365	0.0275574
622.5	0.0273728
622.635	0.028234
622.77	0.0278034
622.905	0.0280495
623.04	0.028357
623.175	0.0274958
623.31	0.0279264
623.445	0.028111
623.58	0.0272498
623.715	0.028111
623.85	0.0287876
623.985	0.0284185
624.12	0.0275574
624.255	0.0274343
624.39	0.0275574
624.525	0.0273728
624.661	0.0291567
624.796	0.0280495
624.931	0.0284185
625.066	0.0276189
625.201	0.0266962
625.336	0.02848
625.471	0.02848
625.606	0.0282955
625.741	0.0274958
625.876	0.028234
626.011	0.0287876
626.146	0.028234
626.281	0.0276804
626.416	0.0265117
626.551	0.0274958
626.686	0.0282955
626.821	0.0284185
626.956	0.0278649
627.091	0.0281725
627.226	0.0282955
627.361	0.028234
627.496	0.0273113
627.631	0.0278649
627.766	0.0282955
627.901	0.0273728
628.036	0.0279264
628.171	0.0273728
628.307	0.0279879
628.442	0.0279264
628.577	0.0272498
628.712	0.0276804
628.847	0.0290952
628.982	0.0281725
629.117	0.0277419
629.252	0.0280495
629.387	0.0276189
629.522	0.0276189
629.657	0.0277419
629.792	0.028111
629.927	0.0279879
630.062	0.0279264
630.197	0.0280495
630.332	0.0281725
630.467	0.0284185
630.602	0.0279264
630.737	0.0286646
630.872	0.0280495
631.007	0.0276804
631.142	0.0282955
631.277	0.0279264
631.412	0.0280495
631.547	0.0277419
631.682	0.0271883
631.817	0.0280495
631.952	0.0275574
632.087	0.0277419
632.222	0.0271883
632.357	0.0280495
632.492	0.0278034
632.627	0.0288491
632.762	0.0278034
632.897	0.0287261
633.032	0.02848
633.167	0.0277419
633.302	0.0271883
633.437	0.0277419
633.572	0.0270038
633.707	0.0278034
633.842	0.0277419
633.978	0.0276804
634.113	0.0279264
634.248	0.0281725
634.383	0.0279264
634.518	0.028111
634.653	0.0279264
634.788	0.0273728
634.923	0.0285416
635.058	0.0271268
635.193	0.0268807
635.328	0.0279264
635.463	0.028234
635.598	0.0272498
635.733	0.0278649
635.868	0.0280495
636.003	0.0278034
636.138	0.02848
636.273	0.0275574
636.408	0.028111
636.543	0.0285416
636.678	0.0276189
636.813	0.0278034
636.948	0.0274958
637.083	0.0284185
637.218	0.0278034
637.353	0.0278649
637.488	0.0273728
637.623	0.0274958
637.758	0.0281725
637.893	0.0277419
638.028	0.0277419
638.163	0.0277419
638.298	0.0274343
638.433	0.0275574
638.568	0.0275574
638.703	0.0286031
638.838	0.028111
638.973	0.0271883
639.108	0.028234
639.243	0.0279264
639.378	0.0274343
639.513	0.0279264
639.648	0.0278034
639.783	0.0276804
639.918	0.0279879
640.053	0.0286031
640.188	0.028234
640.323	0.0282955
640.458	0.0279264
640.593	0.0280495
640.728	0.0290336
640.863	0.0278649
640.998	0.028234
641.133	0.0274958
641.268	0.0279879
641.403	0.0278649
641.538	0.0274343
641.673	0.0278649
641.808	0.0276189
641.943	0.0279879
642.078	0.0274343
642.213	0.0279879
642.348	0.0272498
642.483	0.0278649
642.618	0.0279879
642.753	0.0280495
642.888	0.0281725
643.023	0.0272498
643.158	0.0278034
643.293	0.0286031
643.428	0.028111
643.563	0.0286646
643.698	0.0276804
643.833	0.0278649
643.968	0.0284185
644.103	0.0277419
644.237	0.0279264
644.372	0.0276804
644.507	0.0284185
644.642	0.0279264
644.777	0.0279264
644.912	0.0289106
645.047	0.0274343
645.182	0.0280495
645.317	0.0277419
645.452	0.0279879
645.587	0.028357
645.722	0.0279264
645.857	0.0278649
645.992	0.0279264
646.127	0.0276189
646.262	0.0286031
646.397	0.0287261
646.532	0.0282955
646.667	0.028357
646.802	0.0282955
646.937	0.0276189
647.072	0.028357
647.207	0.0287261
647.342	0.0274343
647.477	0.0274958
647.612	0.0285416
647.747	0.0281725
647.882	0.028234
648.017	0.028357
648.152	0.0275574
648.287	0.0275574
648.422	0.0278649
648.557	0.0279879
648.692	0.0272498
648.827	0.0278649
648.962	0.0274343
649.097	0.028234
649.232	0.0282955
649.367	0.0282955
649.502	0.0286031
649.637	0.0279264
649.772	0.0271883
649.906	0.0279264
650.041	0.0279879
650.176	0.0279879
650.311	0.028234
650.446	0.0267577
650.581	0.0276189
650.716	0.0280495
650.851	0.0271883
650.986	0.028357
651.121	0.0274958
651.256	0.028234
651.391	0.0269422
651.526	0.0286031
651.661	0.0286031
651.796	0.0275574
651.931	0.0286646
652.066	0.0276189
652.201	0.0287876
652.336	0.0273728
652.471	0.0281725
652.606	0.0272498
652.741	0.0281725
652.876	0.0276804
653.011	0.0278649
653.146	0.0281725
653.281	0.0276189
653.415	0.0276189
653.55	0.0282955
653.685	0.0279879
653.82	0.0278034
653.955	0.0276189
654.09	0.028111
654.225	0.0282955
654.36	0.0271268
654.495	0.0271883
654.63	0.0287261
654.765	0.0281725
654.9	0.028111
655.035	0.0284185
655.17	0.028111
655.305	0.0286646
655.44	0.0286031
655.575	0.0278034
655.71	0.0281725
655.845	0.0287876
655.98	0.0276804
656.115	0.0286646
656.25	0.0279879
656.384	0.0271883
656.519	0.0277419
656.654	0.0286031
656.789	0.0285416
656.924	0.0273728
657.059	0.0280495
657.194	0.0278034
657.329	0.0278034
657.464	0.0278649
657.599	0.0284185
657.734	0.0266347
657.869	0.0272498
658.004	0.0281725
658.139	0.0284185
658.274	0.028357
658.409	0.0274958
658.544	0.0279264
658.679	0.0290952
658.813	0.0282955
658.948	0.0281725
659.083	0.0280495
659.218	0.0271268
659.353	0.0280495
659.488	0.0281725
659.623	0.0275574
659.758	0.0274343
659.893	0.0281725
660.028	0.0277419
660.163	0.0277419
660.298	0.0276189
660.433	0.0279879
660.568	0.0274958
660.703	0.0277419
660.838	0.0275574
660.972	0.0285416
661.107	0.028234
661.242	0.0278034
661.377	0.0281725
661.512	0.0282955
661.647	0.0278649
661.782	0.0275574
661.917	0.0275574
662.052	0.0279264
662.187	0.0287261
662.322	0.0268807
662.457	0.0280495
662.592	0.0273728
662.727	0.0285416
662.862	0.028111
662.996	0.0276804
663.131	0.0279264
663.266	0.028111
663.401	0.0276189
663.536	0.0282955
663.671	0.0278034
663.806	0.028234
663.941	0.0290336
664.076	0.028234
664.211	0.0281725
664.346	0.0272498
664.481	0.0282955
664.616	0.0287261
664.75	0.0278034
664.885	0.0278649
665.02	0.0276189
665.155	0.0280495
665.29	0.0278034
665.425	0.028111
665.56	0.0269422
665.695	0.0275574
665.83	0.0277419
665.965	0.028111
666.1	0.0278034
666.235	0.0279264
666.37	0.0274958
666.504	0.028234
666.639	0.0290336
666.774	0.0281725
666.909	0.0276189
667.044	0.0275574
667.179	0.0272498
667.314	0.0271883
667.449	0.0286646
667.584	0.0282955
667.719	0.0270653
667.854	0.02848
667.989	0.0278034
668.123	0.028234
668.258	0.0276189
668.393	0.0274343
668.528	0.0291567
668.663	0.0274343
668.798	0.028234
668.933	0.0270653
669.068	0.028111
669.203	0.0272498
669.338	0.0282955
669.473	0.0276189
669.607	0.0275574
669.742	0.0282955
669.877	0.028234
670.012	0.0273728
670.147	0.028111
670.282	0.0281725
670.417	0.0277419
670.552	0.0277419
670.687	0.0284185
670.822	0.0277419
670.957	0.0276189
671.091	0.0284185
671.226	0.0277419
671.361	0.0276804
671.496	0.0279879
671.631	0.0277419
671.766	0.0285416
671.901	0.0273728
672.036	0.0268192
672.171	0.0277419
672.306	0.028111
672.44	0.0285416
672.575	0.02848
672.71	0.028111
672.845	0.0279879
672.98	0.0279264
673.115	0.0280495
673.25	0.0278034
673.385	0.0286646
673.52	0.0279264
673.655	0.0265732
673.789	0.028111
673.924	0.0281725
674.059	0.0278649
674.194	0.0272498
674.329	0.0284185
674.464	0.0284185
674.599	0.0287876
674.734	0.0282955
674.869	0.0269422
675.003	0.0278034
675.138	0.0279264
675.273	0.0276189
675.408	0.0282955
675.543	0.0281725
675.678	0.0278649
675.813	0.028111
675.948	0.0274343
676.083	0.0284185
676.217	0.0276804
676.352	0.0279879
676.487	0.0276804
676.622	0.0271883
676.757	0.0278649
676.892	0.0278649
677.027	0.0284185
677.162	0.0271268
677.297	0.02848
677.431	0.0278034
677.566	0.0282955
677.701	0.028234
677.836	0.0281725
677.971	0.0286031
678.106	0.0285416
678.241	0.028234
678.376	0.0285416
678.511	0.0287261
678.645	0.028111
678.78	0.0275574
678.915	0.0279879
679.05	0.0288491
679.185	0.028357
679.32	0.0277419
679.455	0.0278649
679.59	0.0295873
679.724	0.0276804
679.859	0.0276189
679.994	0.0285416
680.129	0.0286646
680.264	0.0277419
680.399	0.0291567
680.534	0.0278649
680.669	0.0286031
680.803	0.0273113
680.938	0.0276804
681.073	0.0285416
681.208	0.0279879
681.343	0.0278034
681.478	0.0281725
681.613	0.0278034
681.748	0.0269422
681.882	0.0275574
682.017	0.028234
682.152	0.0278034
682.287	0.0279879
682.422	0.0274958
682.557	0.0279264
682.692	0.0285416
682.827	0.0278649
682.961	0.028111
683.096	0.02848
683.231	0.0277419
683.366	0.0276189
683.501	0.028111
683.636	0.0273728
683.771	0.0280495
683.906	0.0279264
684.04	0.0274343
684.175	0.0279879
684.31	0.0274958
684.445	0.0278649
684.58	0.0274343
684.715	0.0284185
684.85	0.0275574
684.984	0.0277419
685.119	0.0279879
685.254	0.0272498
685.389	0.0273728
685.524	0.0269422
685.659	0.0274343
685.794	0.0277419
685.928	0.0285416
686.063	0.0274958
686.198	0.0276804
686.333	0.0276804
686.468	0.0291567
686.603	0.0279264
686.738	0.0279264
686.872	0.0289721
687.007	0.0285416
687.142	0.0279264
687.277	0.028111
687.412	0.0273728
687.547	0.0278034
687.682	0.0276189
687.816	0.0273113
687.951	0.0279879
688.086	0.0280495
688.221	0.0273728
688.356	0.0282955
688.491	0.0284185
688.626	0.028234
688.76	0.0277419
688.895	0.0274343
689.03	0.0284185
689.165	0.0286646
689.3	0.0278649
689.435	0.0287261
689.57	0.0277419
689.704	0.0279264
689.839	0.028111
689.974	0.0273728
690.109	0.0284185
690.244	0.0287261
690.379	0.0271883
690.513	0.0276189
690.648	0.0273728
690.783	0.0276804
690.918	0.028234
691.053	0.0275574
691.188	0.028234
691.323	0.0277419
691.457	0.0285416
691.592	0.0270038
691.727	0.028234
691.862	0.0279264
691.997	0.0278034
692.132	0.0279264
692.266	0.0276189
692.401	0.0278649
692.536	0.0286646
692.671	0.0278034
692.806	0.0278649
692.941	0.028234
693.075	0.0274343
693.21	0.028111
693.345	0.0282955
693.48	0.0271883
693.615	0.0286031
693.75	0.0274958
693.885	0.0273113
694.019	0.0285416
694.154	0.0286031
694.289	0.0277419
694.424	0.0284185
694.559	0.0276804
694.694	0.0282955
694.828	0.0272498
694.963	0.0274343
695.098	0.0275574
695.233	0.0271268
695.368	0.0278649
695.503	0.0280495
695.637	0.0271268
695.772	0.0274343
695.907	0.0276804
696.042	0.0286646
696.177	0.028111
696.312	0.028111
696.446	0.0286031
696.581	0.0279879
696.716	0.0288491
696.851	0.0271883
696.986	0.0272498
697.12	0.0275574
697.255	0.0277419
697.39	0.0286031
697.525	0.02848
697.66	0.0279879
697.795	0.0276804
697.929	0.0276804
698.064	0.0274343
698.199	0.0278034
698.334	0.0280495
698.469	0.0276189
698.604	0.0275574
698.738	0.0272498
698.873	0.02848
699.008	0.0287876
699.143	0.0288491
699.278	0.0274958
699.412	0.0288491
699.547	0.028234
699.682	0.0280495
699.817	0.0287876
699.952	0.0278649
700.087	0.0273728
700.221	0.0279879
700.356	0.0279879
700.491	0.0281725
700.626	0.0276189
700.761	0.028111
700.895	0.0286646
701.03	0.028234
701.165	0.0286646
701.3	0.0269422
701.435	0.0286031
701.57	0.0281725
701.704	0.0279879
701.839	0.02848
701.974	0.0277419
702.109	0.0276804
702.244	0.0282955
702.378	0.0290336
702.513	0.0273113
702.648	0.0280495
702.783	0.0279879
702.918	0.0288491
703.052	0.02848
703.187	0.0274343
703.322	0.0274343
703.457	0.0282955
703.592	0.0278649
703.727	0.028234
703.861	0.0282955
703.996	0.02848
704.131	0.0273113
704.266	0.0281725
704.401	0.0276804
704.535	0.0274958
704.67	0.0287876
704.805	0.028111
704.94	0.028111
705.075	0.0280495
705.209	0.0274343
705.344	0.0277419
705.479	0.0274343
705.614	0.0286031
705.749	0.028234
705.883	0.028111
706.018	0.0285416
706.153	0.0277419
706.288	0.0282955
706.423	0.0278649
706.557	0.0274958
706.692	0.0286031
706.827	0.0276189
706.962	0.028357
707.097	0.0278034
707.231	0.0290336
707.366	0.0278649
707.501	0.0275574
707.636	0.028111
707.771	0.0278034
707.905	0.0287261
708.04	0.0277419
708.175	0.0278034
708.31	0.0275574
708.445	0.0271268
708.579	0.0284185
708.714	0.0276189
708.849	0.0271268
708.984	0.0271883
709.118	0.0275574
709.253	0.0271268
709.388	0.0266962
709.523	0.0282955
709.658	0.0276804
709.792	0.0279264
709.927	0.0278649
710.062	0.028111
710.197	0.0274343
710.332	0.0273113
710.466	0.0278649
710.601	0.0281725
710.736	0.0284185
710.871	0.0276189
711.006	0.0277419
711.14	0.0276804
711.275	0.0276804
711.41	0.028234
711.545	0.0279879
711.679	0.0286646
711.814	0.0279264
711.949	0.0280495
712.084	0.0278649
712.219	0.0290952
712.353	0.0275574
712.488	0.028357
712.623	0.0279264
712.758	0.0271883
712.892	0.02848
713.027	0.0278649
713.162	0.0280495
713.297	0.0280495
713.432	0.0270038
713.566	0.0273113
713.701	0.028111
713.836	0.0273728
713.971	0.0279879
714.105	0.0288491
714.24	0.0278034
714.375	0.0279264
714.51	0.0278034
714.645	0.0274343
714.779	0.0282955
714.914	0.0275574
715.049	0.0273728
715.184	0.0287261
715.318	0.0278649
715.453	0.0282955
715.588	0.0279879
715.723	0.0284185
715.858	0.0278649
715.992	0.0277419
716.127	0.0275574
716.262	0.0280495
716.397	0.0279879
716.531	0.0278649
716.666	0.0282955
716.801	0.028357
716.936	0.0270653
717.07	0.0280495
717.205	0.0282955
717.34	0.0278649
717.475	0.028234
717.61	0.0285416
717.744	0.0278649
717.879	0.0278649
718.014	0.0280495
718.149	0.0277419
718.283	0.0286031
718.418	0.028234
718.553	0.0278034
718.688	0.0274958
718.822	0.0277419
718.957	0.0279879
719.092	0.0282955
719.227	0.0287261
719.361	0.0271268
719.496	0.0289106
719.631	0.0276189
719.766	0.0287876
719.9	0.0277419
720.035	0.0280495
720.17	0.0280495
720.305	0.0269422
720.44	0.0282955
720.574	0.028234
720.709	0.0284185
720.844	0.0286646
720.979	0.028111
721.113	0.0271883
721.248	0.0280495
721.383	0.02848
721.518	0.0290336
721.652	0.028111
721.787	0.0287261
721.922	0.0282955
722.057	0.028357
722.191	0.0281725
722.326	0.0284185
722.461	0.0276804
722.596	0.0284185
722.73	0.0289106
722.865	0.0279879
723	0.0270653
723.135	0.0269422
723.269	0.0268807
723.404	0.0269422
723.539	0.0278649
723.674	0.0282955
723.808	0.0288491
723.943	0.0282955
724.078	0.0291567
724.213	0.0281725
724.347	0.0282955
724.482	0.0287876
724.617	0.0274958
724.752	0.0286646
724.886	0.028234
725.021	0.0273728
725.156	0.0272498
725.291	0.0284185
725.425	0.0270653
725.56	0.0274343
725.695	0.028111
725.829	0.028357
725.964	0.0276804
726.099	0.0280495
726.234	0.0279879
726.368	0.028111
726.503	0.0274958
726.638	0.0284185
726.773	0.02848
726.907	0.0274343
727.042	0.0276189
727.177	0.0286646
727.312	0.0285416
727.446	0.0284185
727.581	0.028234
727.716	0.0278034
727.851	0.0270653
727.985	0.0274343
728.12	0.02848
728.255	0.0272498
728.389	0.0280495
728.524	0.0280495
728.659	0.0279264
728.794	0.0273113
728.928	0.0281725
729.063	0.028111
729.198	0.0273728
729.333	0.0279264
729.467	0.0278034
729.602	0.0281725
729.737	0.028234
729.872	0.0276189
730.006	0.0275574
730.141	0.0278649
730.276	0.0274958
730.41	0.0281725
730.545	0.0273113
730.68	0.0285416
730.815	0.0287876
730.949	0.0281725
731.084	0.0285416
731.219	0.0277419
731.354	0.0274343
731.488	0.028111
731.623	0.028111
731.758	0.028234
731.892	0.0279879
732.027	0.0278034
732.162	0.028111
732.297	0.028357
732.431	0.028357
732.566	0.028357
732.701	0.0268807
732.835	0.0271268
732.97	0.0288491
733.105	0.0279264
733.24	0.0275574
733.374	0.0274343
733.509	0.0286031
733.644	0.0282955
733.779	0.0281725
733.913	0.0276189
734.048	0.028111
734.183	0.0286646
734.317	0.0280495
734.452	0.0271268
734.587	0.0273728
734.722	0.0282955
734.856	0.0286646
734.991	0.028234
735.126	0.0276189
735.26	0.02848
735.395	0.0274958
735.53	0.0281725
735.665	0.0286646
735.799	0.0282955
735.934	0.0278034
736.069	0.028234
736.203	0.0275574
736.338	0.0281725
736.473	0.0274958
736.607	0.0279879
736.742	0.0279264
736.877	0.0278034
737.012	0.0276189
737.146	0.0276804
737.281	0.0282955
737.416	0.0285416
737.55	0.0270038
737.685	0.0275574
737.82	0.0265732
737.955	0.0277419
738.089	0.0282955
738.224	0.0287876
738.359	0.0280495
738.493	0.0270038
738.628	0.0276189
738.763	0.0282955
738.897	0.0276804
739.032	0.0273113
739.167	0.0275574
739.302	0.0282955
739.436	0.0281725
739.571	0.0282955
739.706	0.0276804
739.84	0.0274958
739.975	0.0277419
740.11	0.0287261
740.244	0.0278034
740.379	0.0280495
740.514	0.0272498
740.649	0.0276189
740.783	0.0287261
740.918	0.0279879
741.053	0.02848
741.187	0.0284185
741.322	0.028234
741.457	0.0282955
741.591	0.028234
741.726	0.0281725
741.861	0.028111
741.996	0.028111
742.13	0.0274958
742.265	0.028234
742.4	0.0279264
742.534	0.0279264
742.669	0.0271883
742.804	0.0280495
742.938	0.0276804
743.073	0.028111
743.208	0.0285416
743.342	0.0279264
743.477	0.0286646
743.612	0.0281725
743.747	0.0279264
743.881	0.0287261
744.016	0.0274958
744.151	0.028111
744.285	0.028234
744.42	0.0274958
744.555	0.0279264
744.689	0.0276189
744.824	0.0274958
744.959	0.0277419
745.093	0.0276189
745.228	0.0273113
745.363	0.0273113
745.497	0.0276804
745.632	0.0273113
745.767	0.0279264
745.901	0.028234
746.036	0.0279879
746.171	0.0285416
746.305	0.0271268
746.44	0.0277419
746.575	0.0279264
746.71	0.0274343
746.844	0.0273728
746.979	0.0276804
747.114	0.0277419
747.248	0.0278034
747.383	0.0276189
747.518	0.0277419
747.652	0.0282955
747.787	0.028111
747.922	0.0286031
748.056	0.0289106
748.191	0.0284185
748.326	0.0275574
748.46	0.0279264
748.595	0.0274958
748.73	0.0274343
748.864	0.0284185
748.999	0.0277419
749.134	0.0278649
749.268	0.0271883
749.403	0.028357
749.538	0.0279264
749.672	0.0279264
749.807	0.0274343
749.942	0.0274958
750.076	0.0279264
750.211	0.0278034
750.346	0.0288491
750.48	0.0278034
750.615	0.0282955
750.75	0.0278034
750.884	0.0279264
751.019	0.0276804
751.154	0.0277419
751.288	0.0282955
751.423	0.0271883
751.558	0.0278649
751.692	0.0277419
751.827	0.0278034
751.962	0.0279879
752.096	0.0279264
752.231	0.0274958
752.366	0.0285416
752.5	0.0279264
752.635	0.0278649
752.77	0.0282955
752.904	0.0276189
753.039	0.0278034
753.174	0.0276804
753.308	0.0284185
753.443	0.0273728
753.578	0.0286031
753.712	0.028111
753.847	0.0281725
753.982	0.0278649
754.116	0.0279879
754.251	0.0274343
754.386	0.0271883
754.52	0.028357
754.655	0.0276804
754.79	0.0273113
754.924	0.0275574
755.059	0.0279264
755.194	0.0291567
755.328	0.0276804
755.463	0.0277419
755.597	0.0285416
755.732	0.028111
755.867	0.0276189
756.001	0.0276804
756.136	0.028357
756.271	0.028357
756.405	0.0274343
756.54	0.0290336
756.675	0.028111
756.809	0.0279264
756.944	0.0280495
757.079	0.0282955
757.213	0.0276804
757.348	0.0279264
757.483	0.0278649
757.617	0.0280495
757.752	0.028357
757.887	0.0274343
758.021	0.0288491
758.156	0.0281725
758.29	0.0274958
758.425	0.028234
758.56	0.0275574
758.694	0.0285416
758.829	0.028357
758.964	0.0281725
759.098	0.0278649
759.233	0.0278034
759.368	0.0273728
759.502	0.0269422
759.637	0.0274343
759.772	0.0279264
759.906	0.0279264
760.041	0.0276804
760.175	0.028111
760.31	0.0276804
760.445	0.0286031
760.579	0.0278034
760.714	0.028357
760.849	0.028234
760.983	0.0276189
761.118	0.0275574
761.253	0.0282955
761.387	0.0274958
761.522	0.0274958
761.656	0.0290952
761.791	0.0287261
761.926	0.0265117
762.06	0.028234
762.195	0.0276804
762.33	0.0278649
762.464	0.0273728
762.599	0.0281725
762.733	0.0281725
762.868	0.0277419
763.003	0.0285416
763.137	0.0279264
763.272	0.0282955
763.407	0.0274958
763.541	0.0277419
763.676	0.0285416
763.811	0.0279264
763.945	0.0268807
764.08	0.0286031
764.214	0.0280495
764.349	0.0280495
764.484	0.0277419
764.618	0.0280495
764.753	0.0286646
764.888	0.0280495
765.022	0.0276804
765.157	0.0272498
765.291	0.0273728
765.426	0.0279879
765.561	0.0270653
765.695	0.0290336
765.83	0.0281725
765.965	0.0279264
766.099	0.0277419
766.234	0.0278649
766.368	0.0284185
766.503	0.0281725
766.638	0.0280495
766.772	0.0277419
766.907	0.0282955
767.041	0.0282955
767.176	0.028357
767.311	0.0276804
767.445	0.0279264
767.58	0.0289721
767.715	0.0287261
767.849	0.0286031
767.984	0.0287261
768.118	0.0276189
768.253	0.0280495
768.388	0.0284185
768.522	0.0280495
768.657	0.0273113
768.791	0.02848
768.926	0.0278649
769.061	0.0281725
769.195	0.0278034
769.33	0.0279264
769.465	0.0289106
769.599	0.0273113
769.734	0.0286031
769.868	0.0276189
770.003	0.0279879
770.138	0.0271883
770.272	0.028234
770.407	0.0274343
770.541	0.0278034
770.676	0.028357
770.811	0.0268192
770.945	0.0276189
771.08	0.0289721
771.214	0.0276804
771.349	0.0278649
771.484	0.0276804
771.618	0.0278034
771.753	0.0289721
771.887	0.0276189
772.022	0.0281725
772.157	0.028234
772.291	0.0279879
772.426	0.0284185
772.56	0.0285416
772.695	0.028357
772.83	0.0276804
772.964	0.0289721
773.099	0.0276804
773.233	0.0279264
773.368	0.0276189
773.503	0.0272498
773.637	0.0278034
773.772	0.0279264
773.906	0.0278034
774.041	0.028234
774.176	0.0278034
774.31	0.0276804
774.445	0.0278649
774.579	0.0282955
774.714	0.0271268
774.849	0.028357
774.983	0.0277419
775.118	0.028357
775.252	0.028234
775.387	0.0278034
775.522	0.0266347
775.656	0.0281725
775.791	0.0284185
775.925	0.0278649
776.06	0.0279879
776.195	0.0281725
776.329	0.0279879
776.464	0.0286646
776.598	0.0274343
776.733	0.0274343
776.868	0.0279879
777.002	0.028111
777.137	0.028234
777.271	0.0289106
777.406	0.0284185
777.54	0.0279879
777.675	0.0282955
777.81	0.0279879
777.944	0.0271883
778.079	0.0278649
778.213	0.028357
778.348	0.0280495
778.483	0.028357
778.617	0.0273728
778.752	0.0280495
778.886	0.0274958
779.021	0.0278034
779.155	0.0276189
779.29	0.0279264
779.425	0.028234
779.559	0.0271883
779.694	0.0284185
779.828	0.0277419
779.963	0.0274343
780.098	0.0278034
780.232	0.0290336
780.367	0.0275574
780.501	0.0279264
780.636	0.0285416
780.77	0.0273728
780.905	0.0272498
781.04	0.028234
781.174	0.028111
781.309	0.0276189
781.443	0.0288491
781.578	0.0282955
781.712	0.0274343
781.847	0.0278649
781.982	0.0274958
782.116	0.0286646
782.251	0.0286646
782.385	0.0280495
782.52	0.0276804
782.654	0.0273728
782.789	0.0279879
782.924	0.0285416
783.058	0.0278034
783.193	0.0280495
783.327	0.028111
783.462	0.0278649
783.596	0.0286646
783.731	0.0284185
783.866	0.0274343
784	0.0281725
784.135	0.0276804
784.269	0.0273728
784.404	0.0279264
784.538	0.0276804
784.673	0.0267577
784.808	0.0268807
784.942	0.0279264
785.077	0.0277419
785.211	0.0274343
785.346	0.0278034
785.48	0.0278649
785.615	0.0279879
785.75	0.0270653
785.884	0.0274343
786.019	0.0270038
786.153	0.028234
786.288	0.0272498
786.422	0.0287261
786.557	0.0279264
786.691	0.02848
786.826	0.0274958
786.961	0.0281725
787.095	0.0276189
787.23	0.0280495
787.364	0.0287876
787.499	0.0276189
787.633	0.0285416
787.768	0.0290952
787.902	0.0280495
788.037	0.0277419
788.172	0.0278649
788.306	0.0278649
788.441	0.028357
788.575	0.0276189
788.71	0.0273728
788.844	0.0279264
788.979	0.0287261
789.113	0.0284185
789.248	0.0276804
789.383	0.0289106
789.517	0.0280495
789.652	0.0279879
789.786	0.0279264
789.921	0.0289721
790.055	0.0278649
790.19	0.0276189
790.324	0.0277419
790.459	0.0286031
790.594	0.0277419
790.728	0.028111
790.863	0.0274343
790.997	0.028357
791.132	0.0284185
791.266	0.0286031
791.401	0.0281725
791.535	0.0277419
791.67	0.028111
791.804	0.0276189
791.939	0.0286646
792.074	0.0274958
792.208	0.0274958
792.343	0.0274958
792.477	0.0278649
792.612	0.0286646
792.746	0.0284185
792.881	0.0279879
793.015	0.0274343
793.15	0.0284185
793.284	0.0278034
793.419	0.0280495
793.553	0.028111
793.688	0.0281725
793.823	0.028234
793.957	0.028234
794.092	0.0279264
794.226	0.0278649
794.361	0.0276804
794.495	0.0278649
794.63	0.028111
794.764	0.028234
794.899	0.0273728
795.033	0.0274343
795.168	0.0271268
795.302	0.0278034
795.437	0.028357
795.572	0.0282955
795.706	0.0280495
795.841	0.0274958
795.975	0.0278034
796.11	0.0284185
796.244	0.0276804
796.379	0.0278034
796.513	0.0281725
796.648	0.028234
796.782	0.0285416
796.917	0.0281725
797.051	0.0285416
797.186	0.0277419
797.32	0.02848
797.455	0.028357
797.589	0.0286031
797.724	0.0279264
797.859	0.0289106
797.993	0.028357
798.128	0.0287261
798.262	0.0278034
798.397	0.0276804
798.531	0.0274958
798.666	0.0279264
798.8	0.0285416
798.935	0.0288491
799.069	0.0293412
799.204	0.0276804
799.338	0.0282955
799.473	0.0281725
799.607	0.0290336
799.742	0.0273113
799.876	0.0281725
800.011	0.0287261
800.145	0.0286031
800.28	0.0284185
800.414	0.028234
800.549	0.028111
800.683	0.0273728
800.818	0.0286646
800.953	0.028111
801.087	0.0276804
801.222	0.0284185
801.356	0.0275574
801.491	0.0279264
801.625	0.0279879
801.76	0.0280495
801.894	0.0280495
802.029	0.0279264
802.163	0.0284185
802.298	0.028234
802.432	0.0277419
802.567	0.02848
802.701	0.0285416
802.836	0.0284185
802.97	0.0282955
803.105	0.0279264
803.239	0.0279264
803.374	0.0278649
803.508	0.0284185
803.643	0.0286646
803.777	0.0273113
803.912	0.0278034
804.046	0.028234
804.181	0.028357
804.315	0.028357
804.45	0.028111
804.584	0.0291567
804.719	0.0278034
804.853	0.0286646
804.988	0.0279264
805.122	0.0276804
805.257	0.0289721
805.391	0.0294027
805.526	0.0287261
805.66	0.0281725
805.795	0.0286031
805.929	0.0287876
806.064	0.0286031
806.198	0.0295257
806.333	0.0291567
806.467	0.0295257
806.602	0.0289106
806.736	0.0285416
806.871	0.0289721
807.005	0.0287876
807.14	0.0293412
807.274	0.0285416
807.409	0.02848
807.543	0.0279879
807.678	0.0286031
807.812	0.0287876
807.947	0.0292182
808.081	0.0297103
808.216	0.0300178
808.35	0.0299563
808.485	0.0297103
808.619	0.0302024
808.754	0.0297103
808.888	0.0290336
809.023	0.0295257
809.157	0.0293412
809.292	0.0292182
809.426	0.0291567
809.561	0.0298948
809.695	0.0300178
809.83	0.030633
809.964	0.0303254
810.099	0.0311866
810.233	0.0309405
810.368	0.0303869
810.502	0.0316171
810.637	0.0306945
810.771	0.0315556
810.906	0.0316171
811.04	0.0309405
811.175	0.0324783
811.309	0.0320477
811.444	0.0324783
811.578	0.033278
811.713	0.0344467
811.847	0.0338316
811.982	0.0342007
812.116	0.0355539
812.251	0.0369687
812.385	0.0362305
812.519	0.0374608
812.654	0.038445
812.788	0.040967
812.923	0.0423202
813.057	0.0463185
813.192	0.0529618
813.326	0.0594206
813.461	0.0602202
813.595	0.0887618
813.73	0.137787
813.864	0.167436
813.999	0.2132
814.133	0.476349
814.268	0.6607
814.402	0.818417
814.537	0.879067
814.671	1
814.806	0.985422
814.94	0.998093
815.075	0.99877
815.209	0.992065
815.344	0.988928
815.478	0.981546
815.612	0.972074
815.747	0.961617
815.881	0.760595
816.016	0.800332
816.15	0.505444
816.285	0.203359
816.419	0.212462
816.554	0.14037
816.688	0.064403
816.823	0.0402288
816.957	0.0374608
817.092	0.036169
817.226	0.0349388
817.361	0.0338931
817.495	0.0330934
817.63	0.0343852
817.764	0.0323553
817.898	0.0321708
818.033	0.0322938
818.167	0.033401
818.302	0.0318017
818.436	0.0311251
818.571	0.0310635
818.705	0.0318017
818.84	0.0310635
818.974	0.0294027
819.109	0.0300794
819.243	0.0305714
819.378	0.0299563
819.512	0.0295257
819.646	0.0298948
819.781	0.0301409
819.915	0.0299563
820.05	0.0295873
820.184	0.0305099
820.319	0.0299563
820.453	0.0286031
820.588	0.0295257
820.722	0.0292182
820.857	0.0293412
820.991	0.0294642
821.126	0.0299563
821.26	0.0286646
821.394	0.0281725
821.529	0.0289106
821.663	0.0293412
821.798	0.0285416
821.932	0.0286646
822.067	0.02848
822.201	0.0289721
822.336	0.0295873
822.47	0.0287261
822.605	0.0285416
822.739	0.0279879
822.873	0.028111
823.008	0.0285416
823.142	0.0295257
823.277	0.0286031
823.411	0.0286031
823.546	0.0294642
823.68	0.0278649
823.815	0.0285416
823.949	0.0279264
824.083	0.0290952
824.218	0.0281725
824.352	0.0286646
824.487	0.0279879
824.621	0.0290952
824.756	0.0289106
824.89	0.0279264
825.025	0.0285416
825.159	0.0282955
825.293	0.0286646
825.428	0.0278034
825.562	0.028234
825.697	0.028357
825.831	0.02848
825.966	0.028111
826.1	0.0277419
826.235	0.0282955
826.369	0.0286646
826.503	0.0289721
826.638	0.028234
826.772	0.0281725
826.907	0.0274958
827.041	0.0273728
827.176	0.0278649
827.31	0.028357
827.445	0.028234
827.579	0.0290952
827.713	0.0286646
827.848	0.0278649
827.982	0.0276804
828.117	0.0277419
828.251	0.0276804
828.386	0.0279264
828.52	0.0276189
828.654	0.0287261
828.789	0.0277419
828.923	0.0281725
829.058	0.0286031
829.192	0.0281725
829.327	0.0279264
829.461	0.028234
829.596	0.0277419
829.73	0.0274958
829.864	0.0280495
829.999	0.0277419
830.133	0.0271268
830.268	0.028234
830.402	0.0285416
830.537	0.0279264
830.671	0.02848
830.805	0.0278034
830.94	0.028234
831.074	0.0286031
831.209	0.0280495
831.343	0.0278649
831.478	0.0282955
831.612	0.0275574
831.746	0.0284185
831.881	0.0279264
832.015	0.0276189
832.15	0.0286646
832.284	0.0271268
832.418	0.02848
832.553	0.028111
832.687	0.0279879
832.822	0.0275574
832.956	0.0289721
833.091	0.0275574
833.225	0.0277419
833.359	0.0284185
833.494	0.0282955
833.628	0.028111
833.763	0.02848
833.897	0.0277419
834.032	0.028234
834.166	0.0286646
834.3	0.0281725
834.435	0.0278649
834.569	0.0287876
834.704	0.0282955
834.838	0.0279879
834.972	0.0275574
835.107	0.0288491
835.241	0.0289106
835.376	0.02848
835.51	0.0276189
835.645	0.0280495
835.779	0.028357
835.913	0.0284185
836.048	0.0282955
836.182	0.0291567
836.317	0.0270653
836.451	0.0279264
836.585	0.02848
836.72	0.0286031
836.854	0.0285416
836.989	0.02848
837.123	0.0287261
837.257	0.0278649
837.392	0.0287261
837.526	0.0280495
837.661	0.0281725
837.795	0.0276189
837.929	0.0279879
838.064	0.0286646
838.198	0.0274343
838.333	0.0274343
838.467	0.0274343
838.602	0.0279264
838.736	0.0286646
838.87	0.0276804
839.005	0.0273113
839.139	0.0276804
839.274	0.0286646
839.408	0.0281725
839.542	0.0270653
839.677	0.0281725
839.811	0.028111
839.946	0.028111
840.08	0.0273728
840.214	0.0286031
840.349	0.0280495
840.483	0.028357
840.618	0.0279264
840.752	0.0278034
840.886	0.0292797
841.021	0.0284185
841.155	0.0280495
841.29	0.028234
841.424	0.02848
841.558	0.02848
841.693	0.028111
841.827	0.028111
841.961	0.0276804
842.096	0.0273728
842.23	0.02848
842.365	0.0274343
842.499	0.0281725
842.633	0.0276804
842.768	0.0273728
842.902	0.0271268
843.037	0.0266962
843.171	0.0279264
843.305	0.0277419
843.44	0.0278649
843.574	0.0281725
843.709	0.0279264
843.843	0.0281725
843.977	0.0274958
844.112	0.0286646
844.246	0.0279879
844.381	0.028234
844.515	0.0276189
844.649	0.0278649
844.784	0.0278034
844.918	0.028357
845.052	0.0271268
845.187	0.0278649
845.321	0.0280495
845.456	0.0277419
845.59	0.0278649
845.724	0.0281725
845.859	0.0273113
845.993	0.0274958
846.128	0.0286646
846.262	0.0273113
846.396	0.028234
846.531	0.0286031
846.665	0.0278034
846.799	0.0275574
846.934	0.0289721
847.068	0.0284185
847.203	0.0288491
847.337	0.0273728
847.471	0.0292797
847.606	0.0273113
847.74	0.0277419
847.874	0.0276804
848.009	0.0279879
848.143	0.0286031
848.278	0.0276804
848.412	0.028234
848.546	0.028357
848.681	0.0276189
848.815	0.0286646
848.949	0.0285416
849.084	0.0286646
849.218	0.0279264
849.353	0.0275574
849.487	0.0276189
849.621	0.0286031
849.756	0.0281725
849.89	0.0275574
850.024	0.0278649
850.159	0.0280495
850.293	0.0275574
850.428	0.0280495
850.562	0.0273113
850.696	0.0275574
850.831	0.0272498
850.965	0.0278649
851.099	0.0288491
851.234	0.0269422
851.368	0.0280495
851.502	0.028111
851.637	0.0268192
851.771	0.028357
851.906	0.0281725
852.04	0.0287261
852.174	0.0282955
852.309	0.028357
852.443	0.0284185
852.577	0.0284185
852.712	0.0280495
852.846	0.02848
852.98	0.028234
853.115	0.0281725
853.249	0.0273113
853.384	0.028111
853.518	0.0278649
853.652	0.0271883
853.787	0.0276189
853.921	0.0279264
854.055	0.0265732
854.19	0.0289106
854.324	0.0281725
854.458	0.028111
854.593	0.0281725
854.727	0.028357
854.861	0.028111
854.996	0.0282955
855.13	0.0288491
855.265	0.028357
855.399	0.0270653
855.533	0.028234
855.668	0.0273113
855.802	0.0276189
855.936	0.0279879
856.071	0.028234
856.205	0.0279879
856.339	0.02848
856.474	0.0278649
856.608	0.0289106
856.742	0.0278034
856.877	0.0276189
857.011	0.0280495
857.145	0.0277419
857.28	0.0277419
857.414	0.028111
857.549	0.0278034
857.683	0.0288491
857.817	0.0281725
857.952	0.0276804
858.086	0.0278649
858.22	0.0282955
858.355	0.0278649
858.489	0.0278649
858.623	0.0285416
858.758	0.0279264
858.892	0.0273113
859.026	0.0279879
859.161	0.0278034
859.295	0.0281725
859.429	0.0271883
859.564	0.0281725
859.698	0.0279264
859.832	0.0285416
859.967	0.0279264
860.101	0.0274958
860.235	0.0278034
860.37	0.028234
860.504	0.0277419
860.638	0.0290336
860.773	0.0277419
860.907	0.0279264
861.041	0.028111
861.176	0.0282955
861.31	0.0276189
861.444	0.0286646
861.579	0.0280495
861.713	0.0282955
861.847	0.0289106
861.982	0.0279264
862.116	0.028234
862.25	0.0276804
862.385	0.0277419
862.519	0.0284185
862.653	0.0279264
862.788	0.0274343
862.922	0.0278034
863.056	0.0271883
863.191	0.0273113
863.325	0.0270653
863.459	0.0274958
863.594	0.0273728
863.728	0.0275574
863.862	0.028234
863.997	0.0282955
864.131	0.028234
864.265	0.0286031
864.4	0.0279264
864.534	0.0271883
864.668	0.0281725
864.803	0.0285416
864.937	0.0285416
865.071	0.0285416
865.206	0.0289721
865.34	0.0284185
865.474	0.0268807
865.609	0.028234
865.743	0.0279879
865.877	0.0285416
866.012	0.0287876
866.146	0.02848
866.28	0.0274343
866.415	0.0271883
866.549	0.0276804
866.683	0.0271883
866.818	0.028234
866.952	0.0281725
867.086	0.0276804
867.221	0.0279879
867.355	0.0279264
867.489	0.0279264
867.623	0.0279264
867.758	0.0281725
867.892	0.0277419
868.026	0.0287261
868.161	0.0278034
868.295	0.0273113
868.429	0.0285416
868.564	0.0274958
868.698	0.0284185
868.832	0.0285416
868.967	0.0278034
869.101	0.0281725
869.235	0.0279879
869.37	0.028111
869.504	0.0279264
869.638	0.0272498
869.773	0.0275574
869.907	0.0284185
870.041	0.0278649
870.175	0.0281725
870.31	0.0286031
870.444	0.028357
870.578	0.028111
870.713	0.0286646
870.847	0.0280495
870.981	0.0278034
871.116	0.02848
871.25	0.0277419
871.384	0.0289106
871.519	0.0280495
871.653	0.0276189
871.787	0.0274343
871.921	0.0278034
872.056	0.0276804
872.19	0.028357
872.324	0.028111
872.459	0.0287876
872.593	0.0277419
872.727	0.0273113
872.862	0.0273728
872.996	0.02848
873.13	0.0277419
873.264	0.0279879
873.399	0.0278649
873.533	0.028357
873.667	0.0275574
873.802	0.0284185
873.936	0.0276804
874.07	0.0279879
874.205	0.0282955
874.339	0.0274343
874.473	0.0276804
874.607	0.028234
874.742	0.0279879
874.876	0.0277419
875.01	0.028111
875.145	0.0278649
875.279	0.0290952
875.413	0.0279264
875.548	0.02848
875.682	0.0274343
875.816	0.0274343
875.95	0.028234
876.085	0.0280495
876.219	0.0279264
876.353	0.0276804
876.488	0.028111
876.622	0.0274343
876.756	0.0269422
876.89	0.0277419
877.025	0.0274343
877.159	0.0279264
877.293	0.0279264
877.428	0.0279264
877.562	0.0278649
877.696	0.0276189
877.83	0.028357
877.965	0.0275574
878.099	0.0289106
878.233	0.0282955
878.368	0.028357
878.502	0.0274958
878.636	0.0289721
878.77	0.0279264
878.905	0.028234
879.039	0.0269422
879.173	0.0286031
879.308	0.028111
879.442	0.0281725
879.576	0.02848
879.71	0.0279264
879.845	0.0271268
879.979	0.028111
880.113	0.0288491
880.248	0.0286646
880.382	0.0273728
880.516	0.0282955
880.65	0.0285416
880.785	0.0276804
880.919	0.0278034
881.053	0.0286646
881.188	0.0287876
881.322	0.0279264
881.456	0.0286646
881.59	0.0286031
881.725	0.0273728
881.859	0.028234
881.993	0.0273113
882.127	0.0279879
882.262	0.0271883
882.396	0.0280495
882.53	0.028234
882.665	0.0277419
882.799	0.02848
882.933	0.0276189
883.067	0.0279879
883.202	0.0286031
883.336	0.028234
883.47	0.0281725
883.604	0.028234
883.739	0.0285416
883.873	0.0276189
884.007	0.0274958
884.142	0.0273113
884.276	0.028111
884.41	0.028357
884.544	0.0280495
884.679	0.0286031
884.813	0.0286646
884.947	0.0276189
885.081	0.0280495
885.216	0.02848
885.35	0.0285416
885.484	0.0276804
885.618	0.0278649
885.753	0.0280495
885.887	0.0273728
886.021	0.0274343
886.155	0.0282955
886.29	0.0279264
886.424	0.0273113
886.558	0.028234
886.693	0.028357
886.827	0.0278034
886.961	0.028234
887.095	0.0286646
887.23	0.0282955
887.364	0.0276804
887.498	0.0279879
887.632	0.02848
887.767	0.0279264
887.901	0.028234
888.035	0.0277419
888.169	0.028111
888.304	0.0279264
888.438	0.0273113
888.572	0.0274958
888.706	0.028234
888.841	0.0281725
888.975	0.0274343
889.109	0.0279264
889.243	0.0271268
889.378	0.0279879
889.512	0.0290336
889.646	0.028234
889.78	0.028234
889.915	0.0279879
890.049	0.0286646
890.183	0.028111
890.317	0.028234
890.452	0.0273113
890.586	0.0284185
890.72	0.0278649
890.854	0.0273113
890.989	0.0274958
891.123	0.0281725
891.257	0.0288491
891.391	0.0289721
891.526	0.0274958
891.66	0.028111
891.794	0.0279879
891.928	0.0274958
892.063	0.0271883
892.197	0.0279879
892.331	0.0281725
892.465	0.0273728
892.6	0.0285416
892.734	0.028111
892.868	0.0286646
893.002	0.0269422
893.137	0.028111
893.271	0.0275574
893.405	0.0279264
893.539	0.02848
893.674	0.0294027
893.808	0.0277419
893.942	0.0272498
894.076	0.0284185
894.21	0.028111
894.345	0.0273113
894.479	0.0277419
894.613	0.0277419
894.747	0.028357
894.882	0.028111
895.016	0.028357
895.15	0.0277419
895.284	0.0275574
895.419	0.0287261
895.553	0.0281725
895.687	0.0289721
895.821	0.0276189
895.956	0.0279264
896.09	0.0277419
896.224	0.0275574
896.358	0.0274343
896.492	0.0276804
896.627	0.0281725
896.761	0.0274958
896.895	0.0278034
897.029	0.0284185
897.164	0.0273113
897.298	0.0288491
897.432	0.0277419
897.566	0.0278649
897.701	0.0287261
897.835	0.028111
897.969	0.0272498
898.103	0.0271883
898.237	0.0293412
898.372	0.0274958
898.506	0.0285416
898.64	0.028357
898.774	0.0271883
898.909	0.0286646
899.043	0.0277419
899.177	0.0270038
899.311	0.0270653
899.445	0.0278034
899.58	0.028357
899.714	0.0277419
899.848	0.028234
899.982	0.0274958
900.117	0.0277419
900.251	0.0273728
900.385	0.0279879
900.519	0.0276804
900.653	0.0279879
900.788	0.0275574
900.922	0.0276189
901.056	0.0275574
901.19	0.0278649
901.325	0.0271883
901.459	0.0270653
901.593	0.0275574
901.727	0.0274343
901.861	0.0280495
901.996	0.0281725
902.13	0.0284185
902.264	0.0274958
902.398	0.0278034
902.532	0.0285416
902.667	0.0282955
902.801	0.0277419
902.935	0.0275574
903.069	0.0276804
903.204	0.0274343
903.338	0.0276804
903.472	0.0280495
903.606	0.0277419
903.74	0.0277419
903.875	0.028111
904.009	0.0281725
904.143	0.0284185
904.277	0.0278034
904.411	0.0282955
904.546	0.0276189
904.68	0.0271883
904.814	0.0274343
904.948	0.028111
905.082	0.0282955
905.217	0.0288491
905.351	0.028111
905.485	0.0274958
905.619	0.0280495
905.753	0.0278649
905.888	0.0274958
906.022	0.0276189
906.156	0.0287261
906.29	0.028234
906.424	0.0287876
906.559	0.0279264
906.693	0.0288491
906.827	0.0277419
906.961	0.0276189
907.095	0.0284185
907.23	0.0279264
907.364	0.0275574
907.498	0.0272498
907.632	0.0276189
907.766	0.0278034
907.901	0.0279264
908.035	0.0278649
908.169	0.0284185
908.303	0.0276804
908.437	0.028234
908.572	0.0279264
908.706	0.0276189
908.84	0.028234
908.974	0.028111
909.108	0.0276189
909.243	0.0276804
909.377	0.0286646
909.511	0.0274958
909.645	0.0289721
909.779	0.0279879
909.914	0.0281725
910.048	0.0275574
910.182	0.0274958
910.316	0.0271883
910.45	0.028357
910.585	0.0275574
910.719	0.0274343
910.853	0.028357
910.987	0.0270653
911.121	0.0280495
911.255	0.0273728
911.39	0.0274343
911.524	0.0275574
911.658	0.0277419
911.792	0.02848
911.926	0.0269422
912.061	0.0282955
912.195	0.0279879
912.329	0.0284185
912.463	0.0274958
912.597	0.0273113
912.732	0.0281725
912.866	0.02848
913	0.0286031
913.134	0.0279879
913.268	0.0276804
913.402	0.028357
913.537	0.028234
913.671	0.028234
913.805	0.0275574
913.939	0.0281725
914.073	0.0276189
914.208	0.028234
914.342	0.0274343
914.476	0.0280495
914.61	0.028111
914.744	0.0274343
914.878	0.0277419
915.013	0.0265732
915.147	0.0285416
915.281	0.0278034
915.415	0.0286031
915.549	0.0280495
915.683	0.0275574
915.818	0.0276189
915.952	0.028111
916.086	0.0272498
916.22	0.0274343
916.354	0.028357
916.488	0.0280495
916.623	0.0275574
916.757	0.0279264
916.891	0.028234
917.025	0.0278034
917.159	0.028111
917.293	0.0289106
917.428	0.028357
917.562	0.0270653
917.696	0.0280495
917.83	0.0281725
917.964	0.0278649
918.098	0.0275574
918.233	0.0285416
918.367	0.0281725
918.501	0.028357
918.635	0.0284185
918.769	0.0277419
918.903	0.0285416
919.038	0.0276804
919.172	0.02848
919.306	0.0282955
919.44	0.0280495
919.574	0.0286031
919.708	0.0279879
919.843	0.028357
919.977	0.0290336
920.111	0.0281725
920.245	0.0285416
920.379	0.0272498
920.513	0.0276189
920.648	0.0280495
920.782	0.0275574
920.916	0.0278034
921.05	0.0271883
921.184	0.0265117
921.318	0.0266347
921.453	0.028111
921.587	0.0286646
921.721	0.0293412
921.855	0.0275574
921.989	0.0281725
922.123	0.0282955
922.257	0.028111
922.392	0.0286646
922.526	0.0279264
922.66	0.0274958
922.794	0.02848
922.928	0.0279879
923.062	0.0278649
923.197	0.0286031
923.331	0.0284185
923.465	0.0279264
923.599	0.0279879
923.733	0.0274343
923.867	0.0282955
924.001	0.0271268
924.136	0.028234
924.27	0.0280495
924.404	0.028111
924.538	0.0279264
924.672	0.0274958
924.806	0.0282955
924.94	0.0288491
925.075	0.0286646
925.209	0.0274958
925.343	0.0279879
925.477	0.0278034
925.611	0.0278034
925.745	0.0284185
925.879	0.0273728
926.014	0.0279879
926.148	0.0278649
926.282	0.0279879
926.416	0.0281725
926.55	0.028111
926.684	0.0288491
926.818	0.028111
926.953	0.0276189
927.087	0.0284185
927.221	0.0270038
927.355	0.028234
927.489	0.028111
927.623	0.0287876
927.757	0.02848
927.892	0.0284185
928.026	0.0279264
928.16	0.02848
928.294	0.028234
928.428	0.0279264
928.562	0.028111
928.696	0.0279264
928.831	0.0286646
928.965	0.0276804
929.099	0.0290336
929.233	0.028234
929.367	0.0274958
929.501	0.0274343
929.635	0.0273113
929.769	0.0281725
929.904	0.0278034
930.038	0.0285416
930.172	0.028234
930.306	0.0271883
930.44	0.0272498
930.574	0.0278649
930.708	0.0273113
930.843	0.0281725
930.977	0.0278034
931.111	0.0284185
931.245	0.028111
931.379	0.0286031
931.513	0.0272498
931.647	0.028234
931.781	0.0286031
931.916	0.0278649
932.05	0.0277419
932.184	0.0272498
932.318	0.028357
932.452	0.0273113
932.586	0.0273728
932.72	0.0285416
932.854	0.0281725
932.989	0.0276189
933.123	0.0286031
933.257	0.0276804
933.391	0.0287876
933.525	0.0279879
933.659	0.028357
933.793	0.0279879
933.927	0.028234
934.061	0.0277419
934.196	0.0276189
934.33	0.0279879
934.464	0.028357
934.598	0.0281725
934.732	0.0272498
934.866	0.0278649
935	0.0278034
935.134	0.0273728
935.269	0.0284185
935.403	0.0277419
935.537	0.0281725
935.671	0.0278649
935.805	0.0277419
935.939	0.0274958
936.073	0.0278649
936.207	0.0278649
936.341	0.0284185
936.476	0.02848
936.61	0.02848
936.744	0.0277419
936.878	0.0289721
937.012	0.0269422
937.146	0.0286031
937.28	0.0278649
937.414	0.0279879
937.548	0.02848
937.683	0.028234
937.817	0.0274958
937.951	0.0286646
938.085	0.0279264
938.219	0.0294027
938.353	0.0282955
938.487	0.0279264
938.621	0.0280495
938.755	0.02848
938.889	0.0284185
939.024	0.0278034
939.158	0.0279264
939.292	0.0273728
939.426	0.028234
939.56	0.0279264
939.694	0.0285416
939.828	0.0276189
939.962	0.0278034
940.096	0.0262041
940.231	0.0287876
940.365	0.0280495
940.499	0.0274343
940.633	0.0280495
940.767	0.0281725
940.901	0.028111
941.035	0.0276804
941.169	0.028357
941.303	0.0278649
941.437	0.0280495
941.571	0.0278649
941.706	0.0278034
941.84	0.0274958
941.974	0.0278649
942.108	0.0285416
942.242	0.0282955
942.376	0.0284185
942.51	0.028357
942.644	0.0277419
942.778	0.0280495
942.912	0.028234
943.047	0.028111
943.181	0.0277419
943.315	0.0271268
943.449	0.0274958
943.583	0.0281725
943.717	0.0278034
943.851	0.0279264
943.985	0.028111
944.119	0.0272498
944.253	0.0280495
944.387	0.0280495
944.522	0.0276804
944.656	0.0279264
944.79	0.0278034
944.924	0.0281725
945.058	0.0284185
945.192	0.0272498
945.326	0.0276189
945.46	0.0274958
945.594	0.0278034
945.728	0.0276189
945.862	0.0282955
945.996	0.0277419
946.131	0.0282955
946.265	0.0279264
946.399	0.0277419
946.533	0.0286646
946.667	0.0279879
946.801	0.02848
946.935	0.0278034
947.069	0.0279879
947.203	0.0274958
947.337	0.0278649
947.471	0.0278034
947.605	0.028357
947.739	0.0286646
947.874	0.0274343
948.008	0.0282955
948.142	0.0273113
948.276	0.0279879
948.41	0.0278034
948.544	0.0274958
948.678	0.0278034
948.812	0.0281725
948.946	0.0266962
949.08	0.0279879
949.214	0.0287261
949.348	0.0276189
949.482	0.0284185
949.617	0.0272498
949.751	0.028234
949.885	0.0274343
950.019	0.0286646
950.153	0.0276804
950.287	0.028234
950.421	0.028234
950.555	0.0287261
950.689	0.028234
950.823	0.0278649
950.957	0.0274343
951.091	0.0279879
951.225	0.0277419
951.359	0.0276804
951.493	0.0276804
951.628	0.0285416
951.762	0.0275574
951.896	0.0268807
952.03	0.0266347
952.164	0.028357
952.298	0.0277419
952.432	0.0284185
952.566	0.0277419
952.7	0.028357
952.834	0.0279879
952.968	0.0276804
953.102	0.0288491
953.236	0.028234
953.37	0.0280495
953.504	0.0278034
953.639	0.0284185
953.773	0.0279264
953.907	0.0287876
954.041	0.0279879
954.175	0.0274958
954.309	0.0285416
954.443	0.0277419
954.577	0.0285416
954.711	0.0273113
954.845	0.0280495
954.979	0.028234
955.113	0.0280495
955.247	0.028111
955.381	0.0278649
955.515	0.0277419
955.649	0.0280495
955.783	0.0272498
955.917	0.028111
956.052	0.0286646
956.186	0.0284185
956.32	0.0280495
956.454	0.02848
956.588	0.028234
956.722	0.0270653
956.856	0.0266962
956.99	0.0276804
957.124	0.0287261
957.258	0.0262656
957.392	0.0276189
957.526	0.0279264
957.66	0.028234
957.794	0.0285416
957.928	0.0286031
958.062	0.0274958
958.196	0.0281725
958.33	0.0270038
958.464	0.028234
958.598	0.0281725
958.733	0.028111
958.867	0.0278649
959.001	0.0276804
959.135	0.0275574
959.269	0.0271883
959.403	0.0286031
959.537	0.0279264
959.671	0.0275574
959.805	0.028111
959.939	0.028357
960.073	0.0271268
960.207	0.0276189
960.341	0.0289721
960.475	0.0270653
960.609	0.0278034
960.743	0.028111
960.877	0.028234
961.011	0.0292182
961.145	0.0277419
961.279	0.0274958
961.413	0.0286031
961.547	0.0284185
961.681	0.0278034
961.815	0.028357
961.949	0.0278034
962.083	0.0279264
962.218	0.0282955
962.352	0.0280495
962.486	0.028111
962.62	0.0280495
962.754	0.0279264
962.888	0.0281725
963.022	0.0273113
963.156	0.0274958
963.29	0.0282955
963.424	0.028111
963.558	0.0276804
963.692	0.0271268
963.826	0.0276804
963.96	0.028111
964.094	0.028111
964.228	0.0274343
964.362	0.0271268
964.496	0.028111
964.63	0.0276804
964.764	0.0273728
964.898	0.0287876
965.032	0.0281725
965.166	0.028234
965.3	0.028111
965.434	0.0279264
965.568	0.028234
965.702	0.0286031
965.836	0.0275574
965.97	0.0279264
966.104	0.0285416
966.238	0.0278034
966.372	0.028357
966.506	0.0286646
966.64	0.0278034
966.774	0.0279264
966.908	0.0278649
967.043	0.0277419
967.177	0.0279264
967.311	0.0278649
967.445	0.0278649
967.579	0.0280495
967.713	0.0281725
967.847	0.0282955
967.981	0.0279879
968.115	0.0271883
968.249	0.0277419
968.383	0.0277419
968.517	0.0279264
968.651	0.0276804
968.785	0.0276804
968.919	0.0284185
969.053	0.0285416
969.187	0.0285416
969.321	0.0275574
969.455	0.0279264
969.589	0.0279879
969.723	0.0279264
969.857	0.0282955
969.991	0.0285416
970.125	0.0279264
970.259	0.028357
970.393	0.0275574
970.527	0.0278034
970.661	0.0281725
970.795	0.0273728
970.929	0.0276189
971.063	0.02848
971.197	0.0280495
971.331	0.0276804
971.465	0.0278034
971.599	0.0286031
971.733	0.0285416
971.867	0.0277419
972.001	0.0279879
972.135	0.028111
972.269	0.0276189
972.403	0.0280495
972.537	0.0274958
972.671	0.0285416
972.805	0.028234
972.939	0.0280495
973.073	0.0275574
973.207	0.028357
973.341	0.0280495
973.475	0.0277419
973.609	0.0275574
973.743	0.028357
973.877	0.0286031
974.011	0.0275574
974.145	0.0288491
974.279	0.0273728
974.413	0.0281725
974.547	0.0279879
974.681	0.0279264
974.815	0.028234
974.949	0.0275574
975.083	0.0278649
975.217	0.0274958
975.351	0.0278034
975.485	0.0279264
975.619	0.0284185
975.753	0.0286646
975.887	0.0286031
976.021	0.0271883
976.155	0.0287261
976.289	0.028357
976.423	0.0273728
976.557	0.0279264
976.691	0.0278034
976.825	0.0281725
976.959	0.0288491
977.093	0.0289106
977.227	0.028234
977.361	0.0272498
977.495	0.0286646
977.629	0.0276804
977.763	0.0280495
977.897	0.0285416
978.031	0.0286031
978.165	0.028234
978.299	0.0272498
978.433	0.0272498
978.567	0.0278649
978.701	0.028357
978.835	0.0286646
978.969	0.0282955
979.103	0.0280495
979.237	0.0279879
979.371	0.0280495
979.505	0.0285416
979.639	0.028357
979.773	0.0279879
979.907	0.028357
980.041	0.0282955
980.175	0.0282955
980.308	0.0273728
980.442	0.0278034
980.576	0.0279264
980.71	0.0284185
980.844	0.0289721
980.978	0.0278649
981.112	0.0271883
981.246	0.0278034
981.38	0.0281725
981.514	0.0277419
981.648	0.0280495
981.782	0.0277419
981.916	0.0276804
982.05	0.02848
982.184	0.0285416
982.318	0.0276804
982.452	0.0284185
982.586	0.0277419
982.72	0.0275574
982.854	0.0277419
982.988	0.0279264
983.122	0.0272498
983.256	0.0274958
983.39	0.0269422
983.524	0.0279264
983.658	0.0280495
983.792	0.0276804
983.926	0.0280495
984.06	0.0286031
984.194	0.0279264
984.328	0.0279879
984.462	0.0290336
984.596	0.0279264
984.73	0.0286031
984.864	0.0275574
984.998	0.028111
985.132	0.0280495
985.265	0.0286646
985.399	0.0286646
985.533	0.0276189
985.667	0.0278649
985.801	0.0281725
985.935	0.0288491
986.069	0.0274343
986.203	0.0290952
986.337	0.0279879
986.471	0.0276804
986.605	0.028357
986.739	0.0284185
986.873	0.0287876
987.007	0.0279879
987.141	0.0276189
987.275	0.0276804
987.409	0.0270653
987.543	0.0276804
987.677	0.0285416
987.811	0.028234
987.945	0.0278649
988.079	0.0271883
988.213	0.0276804
988.347	0.0290336
988.481	0.0276189
988.614	0.0289106
988.748	0.0281725
988.882	0.0282955
989.016	0.028234
989.15	0.0282955
989.284	0.0278649
989.418	0.0275574
989.552	0.0276189
989.686	0.0278649
989.82	0.0284185
989.954	0.0286031
990.088	0.0279264
990.222	0.0285416
990.356	0.0274343
990.49	0.0276804
990.624	0.0274343
990.758	0.028111
990.892	0.028234
991.026	0.0282955
991.16	0.0277419
991.294	0.0286031
991.427	0.0280495
991.561	0.0284185
991.695	0.028234
991.829	0.0280495
991.963	0.0276804
992.097	0.0270653
992.231	0.0278649
992.365	0.0275574
992.499	0.0272498
992.633	0.0279264
992.767	0.0278034
992.901	0.0287261
993.035	0.0285416
993.169	0.0272498
993.303	0.0292797
993.437	0.02848
993.571	0.0265117
993.704	0.0285416
993.838	0.0289106
993.972	0.028234
994.106	0.0273113
994.24	0.0275574
994.374	0.0276189
994.508	0.028111
994.642	0.02848
994.776	0.0285416
994.91	0.0276804
995.044	0.0284185
995.178	0.0285416
995.312	0.0275574
995.446	0.0282955
995.58	0.02848
995.714	0.0282955
995.847	0.028111
995.981	0.0273113
996.115	0.0281725
996.249	0.0276189
996.383	0.0277419
996.517	0.0277419
996.651	0.0277419
996.785	0.0273728
996.919	0.0277419
997.053	0.0278649
997.187	0.028111
997.321	0.0271268
997.455	0.028111
997.589	0.0279264
997.722	0.0274958
997.856	0.0280495
997.99	0.0290952
998.124	0.028111
998.258	0.0277419
998.392	0.0288491
998.526	0.0276804
998.66	0.02848
998.794	0.0274343
998.928	0.0276804
999.062	0.028111
999.196	0.0274343
999.33	0.0284185
999.464	0.0274958
999.597	0.0285416
999.731	0.02848
999.865	0.0277419
999.999	0.0275574
1000.13	0.0271268
1000.27	0.0275574
1000.4	0.0270038
1000.53	0.0273728
1000.67	0.0279264
1000.8	0.0279264
1000.94	0.0274958
1001.07	0.0270653
1001.2	0.0276804
1001.34	0.0279264
1001.47	0.02848
1001.61	0.0276804
1001.74	0.028234
1001.87	0.0278034
1002.01	0.0276189
1002.14	0.0269422
1002.28	0.028111
1002.41	0.0271268
1002.54	0.0291567
1002.68	0.0276189
1002.81	0.0281725
1002.95	0.0278034
1003.08	0.0277419
1003.21	0.028111
1003.35	0.0288491
1003.48	0.0284185
1003.61	0.028357
1003.75	0.0275574
1003.88	0.0287876
1004.02	0.0274958
1004.15	0.0288491
1004.28	0.0279879
1004.42	0.0273113
1004.55	0.0276804
1004.69	0.0273728
1004.82	0.0275574
1004.95	0.0278649
1005.09	0.028234
1005.22	0.0294027
1005.36	0.0279879
1005.49	0.0289721
1005.62	0.0278034
1005.76	0.0276804
1005.89	0.0279264
1006.03	0.02848
1006.16	0.0276189
1006.29	0.0273728
1006.43	0.0287261
1006.56	0.0281725
1006.69	0.0276189
1006.83	0.0277419
1006.96	0.0271268
1007.1	0.0279264
1007.23	0.0273113
1007.36	0.0279264
1007.5	0.0279264
1007.63	0.0279264
1007.77	0.0278034
1007.9	0.0274343
1008.03	0.0287261
1008.17	0.028357
1008.3	0.0277419
1008.44	0.02848
1008.57	0.028234
1008.7	0.0276804
1008.84	0.0277419
1008.97	0.0279879
1009.1	0.028234
1009.24	0.028234
1009.37	0.0278649
1009.51	0.02848
1009.64	0.0287876
1009.77	0.02848
1009.91	0.0275574
1010.04	0.0276804
1010.18	0.0275574
1010.31	0.0286031
1010.44	0.0277419
1010.58	0.0282955
1010.71	0.028111
1010.85	0.028234
1010.98	0.0278034
1011.11	0.0276804
1011.25	0.0285416
1011.38	0.0279264
1011.51	0.0271883
1011.65	0.0271883
1011.78	0.0278649
1011.92	0.0273728
1012.05	0.028111
1012.18	0.0292797
1012.32	0.0277419
1012.45	0.0274343
1012.59	0.0282955
1012.72	0.0275574
1012.85	0.0289721
1012.99	0.0276189
1013.12	0.0279879
1013.26	0.0281725
1013.39	0.0278649
1013.52	0.0287876
1013.66	0.0273728
1013.79	0.0270653
1013.92	0.028357
1014.06	0.0279879
1014.19	0.0290952
1014.33	0.0274343
1014.46	0.0273113
1014.59	0.0286031
1014.73	0.0279879
1014.86	0.0274958
1015	0.0279264
1015.13	0.0280495
1015.26	0.0281725
1015.4	0.0270653
1015.53	0.0279264
1015.67	0.0271883
1015.8	0.0272498
1015.93	0.0271883
1016.07	0.0278034
1016.2	0.0282955
1016.33	0.0287876
1016.47	0.0272498
1016.6	0.0284185
1016.74	0.0286646
1016.87	0.0271268
1017	0.028357
1017.14	0.028111
1017.27	0.0279879
1017.41	0.0279879
1017.54	0.0278034
1017.67	0.0270653
1017.81	0.0278649
1017.94	0.0280495
1018.07	0.0273728
1018.21	0.0279264
1018.34	0.0276804
1018.48	0.0273728
1018.61	0.0277419
1018.74	0.0279879
1018.88	0.0278034
1019.01	0.0287261
1019.15	0.0286031
1019.28	0.0276804
1019.41	0.0274343
1019.55	0.0278649
1019.68	0.028111
1019.82	0.0279879
1019.95	0.028234
1020.08	0.0273113
1020.22	0.0290336
1020.35	0.0279879
1020.48	0.0273728
1020.62	0.0278034
1020.75	0.0286646
1020.89	0.0274343
1021.02	0.028234
1021.15	0.0279879
1021.29	0.028357
1021.42	0.0276804
1021.56	0.0284185
1021.69	0.0279879
1021.82	0.028111
1021.96	0.0279879
1022.09	0.02848
1022.22	0.028111
1022.36	0.0278649
1022.49	0.0282955
1022.63	0.0278034
1022.76	0.0278034
1022.89	0.0274958
1023.03	0.028357
1023.16	0.0286646
1023.3	0.0278034
1023.43	0.0274958
1023.56	0.0279879
1023.7	0.0275574
1023.83	0.0279264
1023.96	0.0280495
1024.1	0.02848
1024.23	0.0287876
1024.37	0.0285416
1024.5	0.028234
1024.63	0.0277419
1024.77	0.0273728
1024.9	0.0278034
1025.04	0.0278649
1025.17	0.0272498
1025.3	0.0275574
1025.44	0.0280495
1025.57	0.0278649
1025.7	0.0279264
1025.84	0.0275574
1025.97	0.0279879
1026.11	0.0273113
1026.24	0.028111
1026.37	0.02848
1026.51	0.0276189
1026.64	0.02848
1026.78	0.0279264
1026.91	0.0286646
1027.04	0.0285416
1027.18	0.0279879
1027.31	0.0274343
1027.44	0.02848
1027.58	0.0273113
1027.71	0.0286646
1027.85	0.0274958
1027.98	0.0274958
1028.11	0.0281725
1028.25	0.0279879
1028.38	0.0281725
1028.52	0.0281725
1028.65	0.0288491
1028.78	0.02848
1028.92	0.0273728
1029.05	0.0278649
1029.18	0.0280495
1029.32	0.0272498
1029.45	0.0279879
1029.59	0.028111
1029.72	0.0278034
1029.85	0.0278649
1029.99	0.0279879
1030.12	0.0281725
1030.26	0.0280495
1030.39	0.0268807
1030.52	0.0273113
1030.66	0.0276189
1030.79	0.028234
1030.92	0.0276189
1031.06	0.0279264
1031.19	0.0277419
1031.33	0.02848
1031.46	0.0289106
1031.59	0.0271268
1031.73	0.0271883
1031.86	0.0291567
1031.99	0.02848
1032.13	0.0276804
1032.26	0.0280495
1032.4	0.0287261
1032.53	0.0274343
1032.66	0.0282955
1032.8	0.028111
1032.93	0.0287876
1033.07	0.0282955
1033.2	0.0277419
1033.33	0.0275574
1033.47	0.0271268
1033.6	0.0271268
1033.73	0.02848
1033.87	0.0279264
1034	0.0286031
1034.14	0.028111
1034.27	0.0279264
1034.4	0.0274958
1034.54	0.0279879
1034.67	0.028111
1034.81	0.028234
1034.94	0.028111
1035.07	0.0279264
1035.21	0.0289721
1035.34	0.028111
1035.47	0.0276189
1035.61	0.0280495
1035.74	0.0287261
1035.88	0.0285416
1036.01	0.0278649
1036.14	0.0278034
1036.28	0.0277419
1036.41	0.0279264
1036.54	0.0279879
1036.68	0.028357
1036.81	0.0277419
1036.95	0.0281725
1037.08	0.0275574
1037.21	0.0284185
1037.35	0.0287261
1037.48	0.0276804
1037.62	0.0279264
1037.75	0.0274343
1037.88	0.028357
1038.02	0.0280495
1038.15	0.0282955
1038.28	0.0284185
1038.42	0.02848
1038.55	0.0282955
1038.69	0.0276189
1038.82	0.0284185
1038.95	0.02848
1039.09	0.0268807
1039.22	0.0286646
1039.35	0.0274958
1039.49	0.0279264
1039.62	0.028234
1039.76	0.0276804
1039.89	0.0280495
1040.02	0.028234
1040.16	0.028357
1040.29	0.0285416
1040.43	0.0285416
1040.56	0.0284185
1040.69	0.0279879
1040.83	0.0278649
1040.96	0.0279879
1041.09	0.0278034
1041.23	0.0281725
1041.36	0.028357
1041.5	0.0290336
1041.63	0.028357
1041.76	0.0278649
1041.9	0.0276804
1042.03	0.0285416
1042.16	0.0273113
1042.3	0.028234
1042.43	0.0274343
1042.57	0.0286031
1042.7	0.0291567
1042.83	0.0279879
1042.97	0.0277419
1043.1	0.0273728
1043.23	0.0286646
1043.37	0.0280495
1043.5	0.0278034
1043.64	0.02848
1043.77	0.0278649
1043.9	0.028111
1044.04	0.0278034
1044.17	0.0272498
1044.31	0.0275574
1044.44	0.0275574
1044.57	0.0279879
1044.71	0.0278649
1044.84	0.028111
1044.97	0.0284185
1045.11	0.0286646
1045.24	0.0271268
1045.38	0.028357
1045.51	0.02848
1045.64	0.0286031
1045.78	0.0277419
1045.91	0.0278034
1046.04	0.0279879
1046.18	0.0286031
1046.31	0.0278649
1046.45	0.0295873
1046.58	0.0282955
1046.71	0.0276189
1046.85	0.0286646
1046.98	0.0269422
1047.11	0.028111
1047.25	0.028357
1047.38	0.028357
1047.52	0.0279264
1047.65	0.028111
1047.78	0.0282955
1047.92	0.028234
1048.05	0.0278649
1048.18	0.0279879
1048.32	0.0279264
1048.45	0.0276804
1048.59	0.0280495
1048.72	0.0275574
1048.85	0.0290952
1048.99	0.0273113
1049.12	0.0276804
1049.25	0.0284185
1049.39	0.0276804
1049.52	0.0274343
1049.66	0.0277419
1049.79	0.0278034
1049.92	0.0275574
1050.06	0.0279264
1050.19	0.0277419
1050.33	0.0279264
1050.46	0.0282955
1050.59	0.0272498
1050.73	0.02848
1050.86	0.0285416
1050.99	0.0272498
1051.13	0.028111
1051.26	0.0275574
1051.4	0.0278649
1051.53	0.028357
1051.66	0.0286646
1051.8	0.02848
1051.93	0.0274958
1052.06	0.0279879
1052.2	0.0290952
1052.33	0.0284185
1052.47	0.0275574
1052.6	0.028111
1052.73	0.0288491
1052.87	0.0278649
1053	0.0279879
1053.13	0.0271268
1053.27	0.0281725
1053.4	0.0279264
1053.54	0.0278649
1053.67	0.0273728
1053.8	0.0286646
1053.94	0.0286031
1054.07	0.0276189
1054.2	0.0277419
1054.34	0.0276804
1054.47	0.0278649
1054.61	0.0286031
1054.74	0.0274343
1054.87	0.0282955
1055.01	0.0272498
1055.14	0.0270038
1055.27	0.0274958
1055.41	0.0278034
1055.54	0.0280495
1055.68	0.0276804
1055.81	0.0271883
1055.94	0.0268192
1056.08	0.0281725
1056.21	0.0272498
1056.34	0.0278034
1056.48	0.0286031
1056.61	0.0277419
1056.75	0.0279879
1056.88	0.0274958
1057.01	0.0271883
1057.15	0.0282955
1057.28	0.0276804
1057.41	0.0278649
1057.55	0.0287261
1057.68	0.0277419
1057.82	0.0274958
1057.95	0.028234
1058.08	0.0281725
1058.22	0.0280495
1058.35	0.0287876
1058.48	0.0278034
1058.62	0.0289721
1058.75	0.0279264
1058.89	0.028357
1059.02	0.0273113
1059.15	0.0278649
1059.29	0.0286646
1059.42	0.0284185
1059.55	0.0280495
1059.69	0.0276189
1059.82	0.0278034
1059.96	0.0279264
1060.09	0.0285416
1060.22	0.0277419
1060.36	0.028357
1060.49	0.0273113
1060.62	0.0272498
1060.76	0.028234
1060.89	0.0285416
1061.03	0.0281725
1061.16	0.0284185
1061.29	0.0286031
1061.43	0.0290336
1061.56	0.0267577
1061.69	0.0286031
1061.83	0.0281725
1061.96	0.0266962
1062.1	0.0274958
1062.23	0.0274343
1062.36	0.0280495
1062.5	0.028111
1062.63	0.0281725
1062.76	0.0278649
1062.9	0.0284185
1063.03	0.0279879
1063.17	0.02848
1063.3	0.0273728
1063.43	0.0287261
1063.57	0.0278649
1063.7	0.0277419
1063.83	0.0279879
1063.97	0.0274343
1064.1	0.02848
1064.23	0.0273113
1064.37	0.0278649
1064.5	0.0274343
1064.64	0.0279879
1064.77	0.0280495
1064.9	0.0277419
1065.04	0.0286646
1065.17	0.0284185
1065.3	0.0286646
1065.44	0.028111
1065.57	0.0279879
1065.71	0.02848
1065.84	0.0274958
1065.97	0.0275574
1066.11	0.0278034
1066.24	0.0277419
1066.37	0.028111
1066.51	0.0279879
1066.64	0.0284185
1066.78	0.0274958
1066.91	0.0284185
1067.04	0.0278034
1067.18	0.0281725
1067.31	0.028234
1067.44	0.0275574
1067.58	0.0271268
1067.71	0.0290336
1067.85	0.0278034
1067.98	0.0274343
1068.11	0.0284185
1068.25	0.028357
1068.38	0.0282955
1068.51	0.0274343
1068.65	0.0277419
1068.78	0.028357
1068.92	0.0279264
1069.05	0.0279264
1069.18	0.028234
1069.32	0.0273728
1069.45	0.0278034
1069.58	0.0281725
1069.72	0.0276804
1069.85	0.0279879
1069.98	0.0276804
1070.12	0.0281725
1070.25	0.0279879
1070.39	0.0278649
1070.52	0.0279879
1070.65	0.0281725
1070.79	0.0279879
1070.92	0.0284185
1071.05	0.0279879
1071.19	0.0284185
1071.32	0.0284185
1071.46	0.0284185
1071.59	0.0285416
1071.72	0.0273113
1071.86	0.02848
1071.99	0.028234
1072.12	0.0278034
1072.26	0.028357
1072.39	0.0279879
1072.53	0.0284185
1072.66	0.0285416
1072.79	0.0286031
1072.93	0.0284185
1073.06	0.0280495
1073.19	0.0276189
1073.33	0.0273113
1073.46	0.0279264
1073.59	0.0267577
1073.73	0.0279879
1073.86	0.0287261
1074	0.0279879
1074.13	0.0279879
1074.26	0.0279264
1074.4	0.0284185
1074.53	0.0275574
1074.66	0.0280495
1074.8	0.0282955
1074.93	0.0276189
1075.07	0.028234
1075.2	0.0268807
1075.33	0.02848
1075.47	0.0275574
1075.6	0.0277419
1075.73	0.0276804
1075.87	0.0277419
1076	0.0275574
1076.14	0.0274958
1076.27	0.0282955
1076.4	0.0278649
1076.54	0.0279879
1076.67	0.0280495
1076.8	0.0279264
1076.94	0.028234
1077.07	0.0275574
1077.2	0.028111
1077.34	0.0276189
1077.47	0.0278649
1077.61	0.0278034
1077.74	0.0279879
1077.87	0.0276189
1078.01	0.0276804
1078.14	0.02848
1078.27	0.0288491
1078.41	0.0278649
1078.54	0.0284185
1078.68	0.0288491
1078.81	0.02848
1078.94	0.0276189
1079.08	0.0273728
1079.21	0.0286646
1079.34	0.0280495
1079.48	0.0275574
1079.61	0.0287261
1079.74	0.0270653
1079.88	0.02848
1080.01	0.028357
1080.15	0.02848
1080.28	0.0279264
1080.41	0.0276189
1080.55	0.028234
1080.68	0.0286646
1080.81	0.0280495
1080.95	0.0280495
1081.08	0.028234
1081.22	0.0281725
1081.35	0.0277419
1081.48	0.028357
1081.62	0.0267577
1081.75	0.0279879
1081.88	0.0271883
1082.02	0.0279879
1082.15	0.0276189
1082.28	0.0276804
1082.42	0.0277419
1082.55	0.0276804
1082.69	0.0276804
1082.82	0.0280495
1082.95	0.0285416
1083.09	0.0278649
1083.22	0.0292797
1083.35	0.0278649
1083.49	0.0277419
1083.62	0.0280495
1083.75	0.0285416
1083.89	0.0271268
1084.02	0.0278649
1084.16	0.0285416
1084.29	0.0276189
1084.42	0.0280495
1084.56	0.0276189
1084.69	0.0276804
1084.82	0.0274343
1084.96	0.0275574
1085.09	0.0273113
1085.23	0.028234
1085.36	0.0273728
1085.49	0.0276804
1085.63	0.0275574
1085.76	0.0279879
1085.89	0.0281725
1086.03	0.0272498
1086.16	0.028234
1086.29	0.028111
1086.43	0.0284185
1086.56	0.028357
1086.7	0.0286646
1086.83	0.0281725
1086.96	0.0278034
1087.1	0.0288491
1087.23	0.0276189
1087.36	0.0280495
1087.5	0.0274343
1087.63	0.028357
1087.76	0.0274343
1087.9	0.0278649
1088.03	0.0280495
1088.17	0.0277419
1088.3	0.0286646
1088.43	0.0289721
1088.57	0.0280495
1088.7	0.028234
1088.83	0.0279879
1088.97	0.0291567
1089.1	0.0274343
1089.24	0.0282955
1089.37	0.0279879
1089.5	0.0276804
1089.64	0.028111
1089.77	0.028234
1089.9	0.0270038
1090.04	0.028357
1090.17	0.0279264
1090.3	0.0274343
1090.44	0.02848
1090.57	0.0281725
1090.71	0.028234
1090.84	0.0278649
1090.97	0.028234
1091.11	0.0274343
1091.24	0.0279879
1091.37	0.0276189
1091.51	0.0290952
1091.64	0.0279879
1091.77	0.0277419
1091.91	0.0287876
1092.04	0.0266962
1092.18	0.0279879
1092.31	0.028111
1092.44	0.0280495
1092.58	0.0292182
1092.71	0.0277419
1092.84	0.028357
1092.98	0.02848
1093.11	0.0278034
1093.24	0.0276804
1093.38	0.0279879
1093.51	0.0270653
1093.65	0.0280495
1093.78	0.0277419
1093.91	0.0272498
1094.05	0.0286646
1094.18	0.028357
1094.31	0.0281725
1094.45	0.0268807
1094.58	0.0284185
1094.71	0.0279264
1094.85	0.0287876
1094.98	0.0273113
1095.12	0.02848
1095.25	0.0281725
1095.38	0.0279264
1095.52	0.028234
1095.65	0.0277419
1095.78	0.0274343
1095.92	0.0276189
1096.05	0.0277419
1096.18	0.0278034
1096.32	0.0279264
1096.45	0.0278649
1096.59	0.0279264
1096.72	0.0280495
1096.85	0.0273113
1096.99	0.0274958
1097.12	0.0284185
1097.25	0.0271883
1097.39	0.0275574
1097.52	0.0279264
1097.65	0.0273113
1097.79	0.0286031
1097.92	0.0274343
1098.06	0.0284185
1098.19	0.0274343
1098.32	0.0273728
1098.46	0.0280495
1098.59	0.0276189
1098.72	0.028111
1098.86	0.0278649
1098.99	0.0273113
1099.12	0.0284185
1099.26	0.0272498
1099.39	0.0280495
1099.53	0.0279264
1099.66	0.0277419
1099.79	0.028234
1099.93	0.0282955
1100.06	0.0284185
1100.19	0.0278649
1100.33	0.0276804
1100.46	0.02848
1100.59	0.028111
1100.73	0.0284185
1100.86	0.0274958
1100.99	0.0282955
1101.13	0.0279264
1101.26	0.0274958
1101.4	0.0270038
1101.53	0.0280495
1101.66	0.0274958
1101.8	0.0282955
1101.93	0.0275574
1102.06	0.0277419
1102.2	0.0275574
1102.33	0.028234
1102.46	0.0273728
1102.6	0.0287261
1102.73	0.0281725
1102.87	0.0280495
1103	0.0279264
1103.13	0.0275574
1103.27	0.0284185
1103.4	0.0284185
1103.53	0.0281725
1103.67	0.0278034
1103.8	0.028357
1103.93	0.0271883
1104.07	0.0277419
1104.2	0.028234
1104.34	0.0280495
1104.47	0.0279264
1104.6	0.0278034
1104.74	0.028234
1104.87	0.0284185
1105	0.0270038
1105.14	0.0278034
1105.27	0.0278649
1105.4	0.0278649
1105.54	0.0274343
1105.67	0.0275574
1105.8	0.028111
1105.94	0.0278034
1106.07	0.0278034
1106.21	0.0270653
1106.34	0.0282955
1106.47	0.0279879
1106.61	0.0273728
1106.74	0.0276804
1106.87	0.0277419
1107.01	0.0278034
1107.14	0.0286646
1107.27	0.0287261
1107.41	0.0279264
1107.54	0.0284185

