Source: Spectrum Viewer

Chart: Pulse Spectrum

Series: 
Wavelength (nm)	S (a.u.)
617.638	0.0274167
617.773	0.028156
617.908	0.0268006
618.043	0.0282792
618.178	0.0284641
618.313	0.0279712
618.448	0.0284024
618.583	0.0285873
618.718	0.0274783
618.853	0.0279712
618.988	0.0271086
619.123	0.0280328
619.258	0.0276015
619.394	0.0278479
619.529	0.0276015
619.664	0.0269238
619.799	0.0268622
619.934	0.0273551
620.069	0.0272935
620.204	0.0278479
620.339	0.0282792
620.474	0.0284641
620.609	0.0279096
620.744	0.0275399
620.879	0.0286489
621.014	0.0277247
621.149	0.0279712
621.284	0.0278479
621.419	0.0280944
621.554	0.0285257
621.689	0.0287105
621.825	0.028156
621.96	0.0277863
622.095	0.0277863
622.23	0.028156
622.365	0.0276015
622.5	0.0284641
622.635	0.028156
622.77	0.0287721
622.905	0.0278479
623.04	0.0279712
623.175	0.0280944
623.31	0.0280944
623.445	0.0282792
623.58	0.0280328
623.715	0.0279096
623.85	0.0280944
623.985	0.0272318
624.12	0.0280944
624.255	0.0272318
624.39	0.0263693
624.525	0.0272935
624.661	0.0276631
624.796	0.0277863
624.931	0.0275399
625.066	0.0282176
625.201	0.028156
625.336	0.0280328
625.471	0.028156
625.606	0.0275399
625.741	0.0285257
625.876	0.0282176
626.011	0.0286489
626.146	0.0283408
626.281	0.0284024
626.416	0.0277863
626.551	0.0284641
626.686	0.0278479
626.821	0.0280944
626.956	0.0280328
627.091	0.0277863
627.226	0.0279712
627.361	0.0283408
627.496	0.0282792
627.631	0.0287105
627.766	0.0282792
627.901	0.0287721
628.036	0.0276631
628.171	0.0279712
628.307	0.0284641
628.442	0.028156
628.577	0.0282792
628.712	0.0277247
628.847	0.028156
628.982	0.028156
629.117	0.0282176
629.252	0.028156
629.387	0.0272935
629.522	0.0290185
629.657	0.0277247
629.792	0.0272935
629.927	0.0285257
630.062	0.0283408
630.197	0.0272318
630.332	0.0292034
630.467	0.0284641
630.602	0.0285873
630.737	0.0288337
630.872	0.0284024
631.007	0.0276631
631.142	0.0284024
631.277	0.0278479
631.412	0.0277863
631.547	0.0279712
631.682	0.0277863
631.817	0.0282792
631.952	0.0284641
632.087	0.0277247
632.222	0.0286489
632.357	0.0283408
632.492	0.028156
632.627	0.0280944
632.762	0.0277863
632.897	0.0280328
633.032	0.0280944
633.167	0.0275399
633.302	0.0287105
633.437	0.0271086
633.572	0.028156
633.707	0.0282176
633.842	0.0282792
633.978	0.0280328
634.113	0.0280328
634.248	0.0280944
634.383	0.0274783
634.518	0.0279096
634.653	0.0285873
634.788	0.0280328
634.923	0.0280944
635.058	0.0276015
635.193	0.0279712
635.328	0.0286489
635.463	0.0279096
635.598	0.027047
635.733	0.0285873
635.868	0.0282792
636.003	0.0278479
636.138	0.0276631
636.273	0.0277863
636.408	0.0277863
636.543	0.028156
636.678	0.028156
636.813	0.0279712
636.948	0.0285873
637.083	0.0287721
637.218	0.0274167
637.353	0.0283408
637.488	0.0274167
637.623	0.029573
637.758	0.0284024
637.893	0.0284641
638.028	0.0275399
638.163	0.0276631
638.298	0.0274783
638.433	0.0277863
638.568	0.0288953
638.703	0.0264309
638.838	0.0280328
638.973	0.0282176
639.108	0.0279712
639.243	0.0274167
639.378	0.0285257
639.513	0.0279712
639.648	0.0276015
639.783	0.0286489
639.918	0.0276631
640.053	0.0277863
640.188	0.0268006
640.323	0.0277863
640.458	0.0283408
640.593	0.0282792
640.728	0.0279096
640.863	0.0283408
640.998	0.0276631
641.133	0.0271086
641.268	0.0273551
641.403	0.0276015
641.538	0.026739
641.673	0.0274167
641.808	0.0271086
641.943	0.0287721
642.078	0.0276015
642.213	0.0278479
642.348	0.0280328
642.483	0.0276015
642.618	0.028156
642.753	0.0277863
642.888	0.0286489
643.023	0.0279712
643.158	0.0268622
643.293	0.028156
643.428	0.0275399
643.563	0.0276015
643.698	0.0277863
643.833	0.0276015
643.968	0.0284024
644.103	0.0272318
644.237	0.0277863
644.372	0.0277247
644.507	0.0291418
644.642	0.0285873
644.777	0.0277247
644.912	0.0285257
645.047	0.0284024
645.182	0.0272935
645.317	0.0285873
645.452	0.0275399
645.587	0.0279712
645.722	0.0285257
645.857	0.0276631
645.992	0.0277247
646.127	0.0276015
646.262	0.0273551
646.397	0.0278479
646.532	0.0288953
646.667	0.0282792
646.802	0.0287721
646.937	0.0282176
647.072	0.028156
647.207	0.0274783
647.342	0.0277863
647.477	0.0280328
647.612	0.0279096
647.747	0.0283408
647.882	0.0279712
648.017	0.0285257
648.152	0.0290802
648.287	0.0279096
648.422	0.0280944
648.557	0.0283408
648.692	0.0282792
648.827	0.0277863
648.962	0.0284024
649.097	0.0276015
649.232	0.0277247
649.367	0.028156
649.502	0.0272318
649.637	0.0274783
649.772	0.0283408
649.906	0.0280328
650.041	0.0276015
650.176	0.027047
650.311	0.0288953
650.446	0.0280328
650.581	0.0276015
650.716	0.0274783
650.851	0.0296346
650.986	0.0280944
651.121	0.0274167
651.256	0.0283408
651.391	0.0282176
651.526	0.0283408
651.661	0.0284641
651.796	0.0272935
651.931	0.0279712
652.066	0.0275399
652.201	0.0284024
652.336	0.0274167
652.471	0.0282176
652.606	0.0280944
652.741	0.0285873
652.876	0.0278479
653.011	0.0279712
653.146	0.027047
653.281	0.0280944
653.415	0.0279096
653.55	0.0276631
653.685	0.0276631
653.82	0.0276631
653.955	0.0278479
654.09	0.0285873
654.225	0.0284641
654.36	0.027047
654.495	0.028156
654.63	0.0266773
654.765	0.0274783
654.9	0.0285873
655.035	0.0282176
655.17	0.028156
655.305	0.0276015
655.44	0.0280328
655.575	0.0279096
655.71	0.0282176
655.845	0.0284641
655.98	0.0284024
656.115	0.0271702
656.25	0.0276015
656.384	0.0269238
656.519	0.0278479
656.654	0.0275399
656.789	0.0277247
656.924	0.0276631
657.059	0.0271702
657.194	0.0274167
657.329	0.028156
657.464	0.0277247
657.599	0.0279712
657.734	0.0290185
657.869	0.028156
658.004	0.0276015
658.139	0.0280328
658.274	0.0274167
658.409	0.0287721
658.544	0.0271086
658.679	0.0279096
658.813	0.0282176
658.948	0.0280944
659.083	0.0274167
659.218	0.0282176
659.353	0.0282792
659.488	0.0276631
659.623	0.0282792
659.758	0.0280328
659.893	0.0277863
660.028	0.0279712
660.163	0.0282792
660.298	0.0282792
660.433	0.0282176
660.568	0.0273551
660.703	0.0275399
660.838	0.028156
660.972	0.0288953
661.107	0.0282176
661.242	0.0284024
661.377	0.0282176
661.512	0.0282792
661.647	0.0285257
661.782	0.0283408
661.917	0.0277863
662.052	0.0276015
662.187	0.0277247
662.322	0.0276015
662.457	0.029265
662.592	0.0279712
662.727	0.0282176
662.862	0.0273551
662.996	0.028156
663.131	0.0284024
663.266	0.0266157
663.401	0.0286489
663.536	0.0284641
663.671	0.0283408
663.806	0.0280328
663.941	0.0287721
664.076	0.0280328
664.211	0.0282792
664.346	0.0279712
664.481	0.0282792
664.616	0.0285257
664.75	0.0279096
664.885	0.0277863
665.02	0.0274167
665.155	0.0279712
665.29	0.0276631
665.425	0.0276631
665.56	0.0276015
665.695	0.0282792
665.83	0.0277247
665.965	0.0278479
666.1	0.028156
666.235	0.0279712
666.37	0.0273551
666.504	0.0284641
666.639	0.0275399
666.774	0.0279712
666.909	0.0269854
667.044	0.0274783
667.179	0.0277863
667.314	0.0280944
667.449	0.0266157
667.584	0.0285873
667.719	0.028156
667.854	0.0279096
667.989	0.0276015
668.123	0.0285257
668.258	0.0278479
668.393	0.0282792
668.528	0.0284024
668.663	0.0279712
668.798	0.0276015
668.933	0.0286489
669.068	0.0282176
669.203	0.0284641
669.338	0.0277863
669.473	0.0278479
669.607	0.028156
669.742	0.0280944
669.877	0.028156
670.012	0.0282792
670.147	0.0285257
670.282	0.0282176
670.417	0.028156
670.552	0.0277247
670.687	0.0276631
670.822	0.0274783
670.957	0.0279096
671.091	0.028156
671.226	0.0280944
671.361	0.0275399
671.496	0.0277247
671.631	0.0279096
671.766	0.028156
671.901	0.0284024
672.036	0.0280328
672.171	0.0279712
672.306	0.0277863
672.44	0.0284024
672.575	0.0273551
672.71	0.0274783
672.845	0.0282792
672.98	0.0278479
673.115	0.0278479
673.25	0.0274783
673.385	0.0274783
673.52	0.0278479
673.655	0.0282176
673.789	0.0288953
673.924	0.0282176
674.059	0.0280944
674.194	0.0279096
674.329	0.0284641
674.464	0.0282176
674.599	0.0287105
674.734	0.0282792
674.869	0.0277863
675.003	0.0283408
675.138	0.0280944
675.273	0.0277863
675.408	0.0277247
675.543	0.0286489
675.678	0.0283408
675.813	0.0284641
675.948	0.0279712
676.083	0.0283408
676.217	0.0276015
676.352	0.0276631
676.487	0.0276631
676.622	0.0277863
676.757	0.0285873
676.892	0.0284024
677.027	0.0275399
677.162	0.0269238
677.297	0.0287105
677.431	0.0280328
677.566	0.0286489
677.701	0.0282792
677.836	0.0290185
677.971	0.0271086
678.106	0.028156
678.241	0.0276631
678.376	0.0276015
678.511	0.0277863
678.645	0.0290185
678.78	0.0274783
678.915	0.0284641
679.05	0.0282792
679.185	0.0287105
679.32	0.0279096
679.455	0.0280328
679.59	0.0285257
679.724	0.0284641
679.859	0.0279712
679.994	0.0276631
680.129	0.0285873
680.264	0.028156
680.399	0.0276631
680.534	0.0280944
680.669	0.0278479
680.803	0.0280328
680.938	0.0283408
681.073	0.0279712
681.208	0.028156
681.343	0.0276631
681.478	0.0284024
681.613	0.0273551
681.748	0.0280328
681.882	0.0274783
682.017	0.0277247
682.152	0.0279096
682.287	0.0286489
682.422	0.0273551
682.557	0.0282792
682.692	0.0277863
682.827	0.0285257
682.961	0.0275399
683.096	0.0284641
683.231	0.0285257
683.366	0.028156
683.501	0.0284024
683.636	0.0279096
683.771	0.0282792
683.906	0.0280944
684.04	0.0276015
684.175	0.0277863
684.31	0.0277863
684.445	0.0279712
684.58	0.0285873
684.715	0.0285873
684.85	0.0282792
684.984	0.028156
685.119	0.0278479
685.254	0.0287721
685.389	0.0273551
685.524	0.0282176
685.659	0.0279712
685.794	0.0279712
685.928	0.028156
686.063	0.0278479
686.198	0.0272318
686.333	0.0280328
686.468	0.0286489
686.603	0.0272318
686.738	0.0282792
686.872	0.0280328
687.007	0.0282176
687.142	0.0280328
687.277	0.0277247
687.412	0.0276015
687.547	0.0277863
687.682	0.028156
687.816	0.0279712
687.951	0.028156
688.086	0.0287721
688.221	0.0280328
688.356	0.0279096
688.491	0.0283408
688.626	0.028156
688.76	0.0280944
688.895	0.028156
689.03	0.0279712
689.165	0.0284641
689.3	0.0275399
689.435	0.0273551
689.57	0.0278479
689.704	0.0288337
689.839	0.028156
689.974	0.0284641
690.109	0.0272935
690.244	0.0280944
690.379	0.0275399
690.513	0.028156
690.648	0.0280944
690.783	0.0285257
690.918	0.0286489
691.053	0.028156
691.188	0.0272935
691.323	0.0283408
691.457	0.0274167
691.592	0.0280328
691.727	0.0282176
691.862	0.0274783
691.997	0.0283408
692.132	0.028156
692.266	0.0287721
692.401	0.0284024
692.536	0.0268006
692.671	0.0272318
692.806	0.0280328
692.941	0.028156
693.075	0.0285873
693.21	0.0283408
693.345	0.028156
693.48	0.0276631
693.615	0.0285873
693.75	0.0279096
693.885	0.0282176
694.019	0.0280328
694.154	0.0278479
694.289	0.0286489
694.424	0.0271702
694.559	0.0274167
694.694	0.0279712
694.828	0.0287105
694.963	0.0283408
695.098	0.0277863
695.233	0.0277247
695.368	0.0276631
695.503	0.0285873
695.637	0.0286489
695.772	0.0279096
695.907	0.0274167
696.042	0.0287105
696.177	0.0276631
696.312	0.0284641
696.446	0.0274167
696.581	0.0283408
696.716	0.0287721
696.851	0.0284641
696.986	0.0282792
697.12	0.0287105
697.255	0.0279096
697.39	0.027047
697.525	0.0275399
697.66	0.0288337
697.795	0.0282176
697.929	0.0280944
698.064	0.0280328
698.199	0.0284024
698.334	0.0283408
698.469	0.0291418
698.604	0.0272318
698.738	0.0285257
698.873	0.0284024
699.008	0.0277247
699.143	0.0282176
699.278	0.0279712
699.412	0.0290185
699.547	0.0279712
699.682	0.0288337
699.817	0.0280328
699.952	0.0287721
700.087	0.0278479
700.221	0.0276631
700.356	0.0285873
700.491	0.0287721
700.626	0.0284641
700.761	0.0286489
700.895	0.0284024
701.03	0.0285873
701.165	0.0278479
701.3	0.0280328
701.435	0.027047
701.57	0.0282176
701.704	0.0287721
701.839	0.0276631
701.974	0.0274167
702.109	0.0285873
702.244	0.0283408
702.378	0.0283408
702.513	0.0279096
702.648	0.0282792
702.783	0.0286489
702.918	0.028156
703.052	0.0283408
703.187	0.0285257
703.322	0.0274783
703.457	0.0284024
703.592	0.0274167
703.727	0.0286489
703.861	0.0280944
703.996	0.0280328
704.131	0.0283408
704.266	0.0285257
704.401	0.0272935
704.535	0.0282176
704.67	0.0276015
704.805	0.0277247
704.94	0.0279712
705.075	0.0284641
705.209	0.0274167
705.344	0.0285257
705.479	0.0276015
705.614	0.0285873
705.749	0.0280328
705.883	0.0278479
706.018	0.0285257
706.153	0.0282792
706.288	0.0282792
706.423	0.0277247
706.557	0.0278479
706.692	0.0278479
706.827	0.0278479
706.962	0.0290185
707.097	0.028156
707.231	0.0282176
707.366	0.027047
707.501	0.0282176
707.636	0.027047
707.771	0.0287105
707.905	0.0274167
708.04	0.0280328
708.175	0.0282792
708.31	0.0284024
708.445	0.0271086
708.579	0.0277863
708.714	0.028156
708.849	0.0279712
708.984	0.0288953
709.118	0.0279712
709.253	0.0274783
709.388	0.0279712
709.523	0.0277247
709.658	0.0278479
709.792	0.0284641
709.927	0.0276631
710.062	0.0282792
710.197	0.028156
710.332	0.0274783
710.466	0.029265
710.601	0.0284024
710.736	0.0280944
710.871	0.0284024
711.006	0.0280328
711.14	0.0283408
711.275	0.0283408
711.41	0.0287721
711.545	0.0277247
711.679	0.0276015
711.814	0.0277863
711.949	0.0280944
712.084	0.0282792
712.219	0.0278479
712.353	0.0276015
712.488	0.0278479
712.623	0.028156
712.758	0.0286489
712.892	0.0280328
713.027	0.0285257
713.162	0.028156
713.297	0.0277863
713.432	0.0276631
713.566	0.0277247
713.701	0.0282176
713.836	0.0283408
713.971	0.0277863
714.105	0.0285873
714.24	0.0279096
714.375	0.0277863
714.51	0.0280328
714.645	0.0280944
714.779	0.0274783
714.914	0.0289569
715.049	0.0284024
715.184	0.0276631
715.318	0.0274783
715.453	0.0274783
715.588	0.0275399
715.723	0.0279096
715.858	0.0283408
715.992	0.0274783
716.127	0.029265
716.262	0.0277863
716.397	0.0282176
716.531	0.0285873
716.666	0.0279096
716.801	0.0278479
716.936	0.028156
717.07	0.0282176
717.205	0.0288953
717.34	0.0279712
717.475	0.0286489
717.61	0.0278479
717.744	0.0277247
717.879	0.0284024
718.014	0.0287721
718.149	0.0278479
718.283	0.0282792
718.418	0.0286489
718.553	0.0277863
718.688	0.0280944
718.822	0.0274783
718.957	0.0284024
719.092	0.0284641
719.227	0.0277247
719.361	0.0278479
719.496	0.0275399
719.631	0.0287721
719.766	0.0279712
719.9	0.0284641
720.035	0.0277247
720.17	0.0283408
720.305	0.0284641
720.44	0.0272935
720.574	0.0279712
720.709	0.0276631
720.844	0.0285257
720.979	0.0285257
721.113	0.0282176
721.248	0.0271086
721.383	0.0279712
721.518	0.0276015
721.652	0.0277863
721.787	0.0287105
721.922	0.0280328
722.057	0.0277247
722.191	0.0288337
722.326	0.0280944
722.461	0.028156
722.596	0.0282792
722.73	0.028156
722.865	0.0274167
723	0.0276631
723.135	0.0283408
723.269	0.0272935
723.404	0.0279096
723.539	0.0279712
723.674	0.0285873
723.808	0.0280328
723.943	0.0280328
724.078	0.0274783
724.213	0.0272935
724.347	0.0284024
724.482	0.0277863
724.617	0.0277247
724.752	0.0282792
724.886	0.026739
725.021	0.0286489
725.156	0.0288337
725.291	0.0282176
725.425	0.0276015
725.56	0.0278479
725.695	0.0279096
725.829	0.028156
725.964	0.0269854
726.099	0.0274167
726.234	0.0277247
726.368	0.0282176
726.503	0.028156
726.638	0.0277863
726.773	0.0282176
726.907	0.0279096
727.042	0.0283408
727.177	0.0283408
727.312	0.0279096
727.446	0.028156
727.581	0.0269854
727.716	0.0278479
727.851	0.0276015
727.985	0.0277863
728.12	0.0282176
728.255	0.028156
728.389	0.0288953
728.524	0.0287721
728.659	0.0276631
728.794	0.0284641
728.928	0.0285257
729.063	0.0277247
729.198	0.0283408
729.333	0.0280944
729.467	0.0274783
729.602	0.028156
729.737	0.0276631
729.872	0.0282792
730.006	0.0284641
730.141	0.0287721
730.276	0.0286489
730.41	0.029265
730.545	0.0280328
730.68	0.0278479
730.815	0.0279712
730.949	0.0283408
731.084	0.0274167
731.219	0.0285873
731.354	0.0280328
731.488	0.0282176
731.623	0.0274167
731.758	0.0274783
731.892	0.0279712
732.027	0.0279712
732.162	0.0279712
732.297	0.0282176
732.431	0.0282792
732.566	0.0284024
732.701	0.028156
732.835	0.0277247
732.97	0.0287721
733.105	0.0280944
733.24	0.0274167
733.374	0.0290802
733.509	0.0280328
733.644	0.0285257
733.779	0.0280328
733.913	0.0284024
734.048	0.0274783
734.183	0.0276015
734.317	0.0275399
734.452	0.0279096
734.587	0.0284024
734.722	0.0278479
734.856	0.0279712
734.991	0.0280328
735.126	0.0285873
735.26	0.0276631
735.395	0.0282176
735.53	0.0288337
735.665	0.0277863
735.799	0.0282176
735.934	0.0284024
736.069	0.0280328
736.203	0.0274783
736.338	0.0280944
736.473	0.0286489
736.607	0.0283408
736.742	0.0276015
736.877	0.0284641
737.012	0.0279712
737.146	0.0282792
737.281	0.0279712
737.416	0.0278479
737.55	0.0276631
737.685	0.0282176
737.82	0.0269854
737.955	0.0278479
738.089	0.0277863
738.224	0.0280328
738.359	0.0282176
738.493	0.0287721
738.628	0.027047
738.763	0.0277247
738.897	0.0276631
739.032	0.0276015
739.167	0.0278479
739.302	0.0282176
739.436	0.0284641
739.571	0.0284641
739.706	0.0277247
739.84	0.0280328
739.975	0.0279096
740.11	0.0293882
740.244	0.0277247
740.379	0.0279712
740.514	0.0277247
740.649	0.0289569
740.783	0.0290185
740.918	0.0279712
741.053	0.0282176
741.187	0.0278479
741.322	0.0274167
741.457	0.0290802
741.591	0.0279096
741.726	0.0276631
741.861	0.0280328
741.996	0.028156
742.13	0.0280944
742.265	0.0278479
742.4	0.0283408
742.534	0.0277863
742.669	0.0279712
742.804	0.0279096
742.938	0.0275399
743.073	0.0284641
743.208	0.0282176
743.342	0.026739
743.477	0.0284641
743.612	0.0280328
743.747	0.0285257
743.881	0.0283408
744.016	0.0271086
744.151	0.0276015
744.285	0.0282176
744.42	0.0272935
744.555	0.0289569
744.689	0.0275399
744.824	0.0279096
744.959	0.0284641
745.093	0.0285873
745.228	0.0279712
745.363	0.028156
745.497	0.0282176
745.632	0.0279712
745.767	0.0274167
745.901	0.0280328
746.036	0.0284641
746.171	0.0282792
746.305	0.0287105
746.44	0.0282176
746.575	0.0273551
746.71	0.0277247
746.844	0.0277863
746.979	0.0274167
747.114	0.0282792
747.248	0.0269238
747.383	0.0285257
747.518	0.0276015
747.652	0.0277247
747.787	0.0269238
747.922	0.0283408
748.056	0.0272318
748.191	0.0279096
748.326	0.0276631
748.46	0.0279096
748.595	0.0274783
748.73	0.0289569
748.864	0.0282176
748.999	0.0276015
749.134	0.0274783
749.268	0.0280944
749.403	0.028156
749.538	0.0276631
749.672	0.0277863
749.807	0.0276631
749.942	0.028156
750.076	0.0282792
750.211	0.0269238
750.346	0.0276015
750.48	0.0275399
750.615	0.0282176
750.75	0.027047
750.884	0.0279712
751.019	0.0279096
751.154	0.0284024
751.288	0.0290802
751.423	0.0277247
751.558	0.028156
751.692	0.0287721
751.827	0.0276631
751.962	0.0276015
752.096	0.0275399
752.231	0.0284641
752.366	0.028156
752.5	0.0278479
752.635	0.0280328
752.77	0.0274783
752.904	0.0280328
753.039	0.0277863
753.174	0.0276015
753.308	0.0288337
753.443	0.0276015
753.578	0.026739
753.712	0.0272935
753.847	0.0282176
753.982	0.0285257
754.116	0.0287721
754.251	0.0285257
754.386	0.028156
754.52	0.0282792
754.655	0.0274783
754.79	0.0271702
754.924	0.027047
755.059	0.0286489
755.194	0.0279712
755.328	0.0279096
755.463	0.0282176
755.597	0.0284641
755.732	0.0275399
755.867	0.028156
756.001	0.0285873
756.136	0.0282176
756.271	0.0276015
756.405	0.0285873
756.54	0.0280944
756.675	0.0272935
756.809	0.0290185
756.944	0.0280944
757.079	0.0277247
757.213	0.0280328
757.348	0.029573
757.483	0.0279096
757.617	0.0278479
757.752	0.0282792
757.887	0.0284641
758.021	0.0282176
758.156	0.0285257
758.29	0.0280944
758.425	0.0287105
758.56	0.0277863
758.694	0.0276015
758.829	0.027047
758.964	0.0284641
759.098	0.0287721
759.233	0.0282792
759.368	0.0285873
759.502	0.0280328
759.637	0.0284641
759.772	0.0276015
759.906	0.0276015
760.041	0.0288953
760.175	0.0282176
760.31	0.0287721
760.445	0.0271702
760.579	0.0282176
760.714	0.0276015
760.849	0.0276015
760.983	0.0272318
761.118	0.0279712
761.253	0.0277863
761.387	0.0279712
761.522	0.0280328
761.656	0.0280328
761.791	0.0282176
761.926	0.0279096
762.06	0.0282176
762.195	0.0279096
762.33	0.0277247
762.464	0.0276631
762.599	0.0269854
762.733	0.0276631
762.868	0.0277247
763.003	0.0284024
763.137	0.0279096
763.272	0.0277247
763.407	0.028156
763.541	0.0280328
763.676	0.0272935
763.811	0.0277247
763.945	0.0279096
764.08	0.0274783
764.214	0.0275399
764.349	0.0280944
764.484	0.028156
764.618	0.0277247
764.753	0.0280944
764.888	0.0287105
765.022	0.0275399
765.157	0.0282176
765.291	0.0278479
765.426	0.0280944
765.561	0.0275399
765.695	0.0277863
765.83	0.0273551
765.965	0.0280944
766.099	0.0284641
766.234	0.0286489
766.368	0.0279096
766.503	0.0284024
766.638	0.0284024
766.772	0.0279096
766.907	0.0282792
767.041	0.0290802
767.176	0.0271086
767.311	0.0279096
767.445	0.0274783
767.58	0.0283408
767.715	0.0277247
767.849	0.0287721
767.984	0.0284641
768.118	0.0278479
768.253	0.0288953
768.388	0.0286489
768.522	0.0277247
768.657	0.0277247
768.791	0.0285257
768.926	0.0277863
769.061	0.0274783
769.195	0.0289569
769.33	0.0277863
769.465	0.0280328
769.599	0.028156
769.734	0.0280328
769.868	0.0280944
770.003	0.0279096
770.138	0.0274167
770.272	0.0283408
770.407	0.0272318
770.541	0.0268622
770.676	0.0285873
770.811	0.0285257
770.945	0.0278479
771.08	0.0280944
771.214	0.0279096
771.349	0.0283408
771.484	0.0284641
771.618	0.0282176
771.753	0.0279096
771.887	0.0283408
772.022	0.0289569
772.157	0.0280328
772.291	0.0285257
772.426	0.0280328
772.56	0.0282792
772.695	0.0280944
772.83	0.0274167
772.964	0.0284024
773.099	0.0279096
773.233	0.0276015
773.368	0.0275399
773.503	0.0287105
773.637	0.0275399
773.772	0.0285873
773.906	0.0286489
774.041	0.029265
774.176	0.0282792
774.31	0.0278479
774.445	0.0271086
774.579	0.0277863
774.714	0.0276631
774.849	0.0287721
774.983	0.0274167
775.118	0.0279096
775.252	0.0271086
775.387	0.0283408
775.522	0.0284024
775.656	0.0282792
775.791	0.028156
775.925	0.0290802
776.06	0.0285873
776.195	0.0280328
776.329	0.0290185
776.464	0.0284641
776.598	0.0277863
776.733	0.0274167
776.868	0.0280944
777.002	0.0276015
777.137	0.0275399
777.271	0.0285257
777.406	0.0282176
777.54	0.0274167
777.675	0.028156
777.81	0.0284024
777.944	0.028156
778.079	0.0283408
778.213	0.0276015
778.348	0.0285873
778.483	0.0280944
778.617	0.0277247
778.752	0.0285257
778.886	0.0280944
779.021	0.0274783
779.155	0.0288337
779.29	0.0279096
779.425	0.0277863
779.559	0.0285257
779.694	0.0278479
779.828	0.0282176
779.963	0.0280328
780.098	0.0277863
780.232	0.0276631
780.367	0.0282792
780.501	0.0290185
780.636	0.0277863
780.77	0.0280944
780.905	0.0278479
781.04	0.0288953
781.174	0.0286489
781.309	0.0282176
781.443	0.0279096
781.578	0.0280944
781.712	0.0278479
781.847	0.0274783
781.982	0.0277247
782.116	0.0279096
782.251	0.0290185
782.385	0.0290802
782.52	0.0283408
782.654	0.028156
782.789	0.0277247
782.924	0.0277863
783.058	0.0286489
783.193	0.0291418
783.327	0.0282792
783.462	0.0277247
783.596	0.0277863
783.731	0.0277247
783.866	0.028156
784	0.0282792
784.135	0.0283408
784.269	0.0284641
784.404	0.0280944
784.538	0.0272935
784.673	0.0287105
784.808	0.028156
784.942	0.0277863
785.077	0.0279712
785.211	0.0280328
785.346	0.0277247
785.48	0.0282176
785.615	0.0283408
785.75	0.0280944
785.884	0.028156
786.019	0.0287105
786.153	0.0290185
786.288	0.0277863
786.422	0.0296346
786.557	0.0273551
786.691	0.0274167
786.826	0.0274167
786.961	0.0276015
787.095	0.0279096
787.23	0.0274167
787.364	0.0285873
787.499	0.0277247
787.633	0.0276015
787.768	0.0280328
787.902	0.0279712
788.037	0.0272318
788.172	0.0277863
788.306	0.0276631
788.441	0.0279096
788.575	0.0276015
788.71	0.0273551
788.844	0.0276631
788.979	0.0285257
789.113	0.0288337
789.248	0.0286489
789.383	0.0280328
789.517	0.0279096
789.652	0.0288337
789.786	0.0276015
789.921	0.0282792
790.055	0.0277863
790.19	0.0282176
790.324	0.0274167
790.459	0.0277863
790.594	0.0282176
790.728	0.0280944
790.863	0.0288337
790.997	0.0280944
791.132	0.0272318
791.266	0.0284024
791.401	0.0285873
791.535	0.028156
791.67	0.0284024
791.804	0.0284641
791.939	0.0288337
792.074	0.0279712
792.208	0.0287721
792.343	0.0278479
792.477	0.0285873
792.612	0.0273551
792.746	0.0284024
792.881	0.0285873
793.015	0.0284024
793.15	0.0284024
793.284	0.0277247
793.419	0.0283408
793.553	0.0284641
793.688	0.0275399
793.823	0.0278479
793.957	0.0277863
794.092	0.0283408
794.226	0.0279712
794.361	0.0277863
794.495	0.0290802
794.63	0.0286489
794.764	0.0284641
794.899	0.0278479
795.033	0.0274167
795.168	0.0285873
795.302	0.0280944
795.437	0.0275399
795.572	0.0279096
795.706	0.0288337
795.841	0.0276631
795.975	0.0282792
796.11	0.0285873
796.244	0.0280944
796.379	0.0279096
796.513	0.0278479
796.648	0.0279712
796.782	0.0282176
796.917	0.0287721
797.051	0.0282792
797.186	0.0285873
797.32	0.0268622
797.455	0.0282792
797.589	0.0282176
797.724	0.0291418
797.859	0.0280328
797.993	0.0286489
798.128	0.0279096
798.262	0.0280328
798.397	0.0282176
798.531	0.0279712
798.666	0.0276631
798.8	0.0277863
798.935	0.0277863
799.069	0.0275399
799.204	0.0280944
799.338	0.0287105
799.473	0.0273551
799.607	0.0279712
799.742	0.0279096
799.876	0.0285257
800.011	0.0279096
800.145	0.0290802
800.28	0.0286489
800.414	0.0286489
800.549	0.0276631
800.683	0.0283408
800.818	0.0278479
800.953	0.0280328
801.087	0.0285257
801.222	0.0285873
801.356	0.0286489
801.491	0.0287105
801.625	0.0282176
801.76	0.0282176
801.894	0.0287721
802.029	0.0285873
802.163	0.0274783
802.298	0.0280328
802.432	0.0288337
802.567	0.0277247
802.701	0.0280944
802.836	0.0282176
802.97	0.0285873
803.105	0.028156
803.239	0.0285873
803.374	0.0271086
803.508	0.0285257
803.643	0.0280944
803.777	0.0279712
803.912	0.0279096
804.046	0.0279712
804.181	0.0288337
804.315	0.0272318
804.45	0.0283408
804.584	0.0280944
804.719	0.0284024
804.853	0.0280944
804.988	0.0288337
805.122	0.029265
805.257	0.0276015
805.391	0.0286489
805.526	0.0278479
805.66	0.0287721
805.795	0.0284024
805.929	0.0284641
806.064	0.0288337
806.198	0.0285257
806.333	0.0288953
806.467	0.0285873
806.602	0.028156
806.736	0.0290802
806.871	0.0291418
807.005	0.0290185
807.14	0.0284024
807.274	0.0286489
807.409	0.0286489
807.543	0.0290802
807.678	0.0280328
807.812	0.0290185
807.947	0.0288953
808.081	0.0290802
808.216	0.0290802
808.35	0.029573
808.485	0.0295114
808.619	0.029265
808.754	0.0299427
808.888	0.030682
809.023	0.0299427
809.157	0.0288953
809.292	0.0298195
809.426	0.0297579
809.561	0.0308669
809.695	0.0310517
809.83	0.0308052
809.964	0.0311133
810.099	0.0301891
810.233	0.0308669
810.368	0.0311749
810.502	0.0309285
810.637	0.0311133
810.771	0.0309901
810.906	0.0320375
811.04	0.0321607
811.175	0.0327768
811.309	0.0330848
811.444	0.0334545
811.578	0.0337009
811.713	0.0348715
811.847	0.0339474
811.982	0.0354876
812.116	0.0360421
812.251	0.0398004
812.385	0.0399236
812.519	0.0423264
812.654	0.0558807
812.788	0.0784302
812.923	0.0667242
813.057	0.0601935
813.192	0.0743023
813.326	0.0735629
813.461	0.0831742
813.595	0.0935247
813.73	0.1056
813.864	0.176514
813.999	0.50422
814.133	0.821206
814.268	0.832974
814.402	0.625716
814.537	0.691948
814.671	0.980285
814.806	1
814.94	0.986076
815.075	0.990943
815.209	0.966053
815.344	0.973507
815.478	0.798472
815.612	0.791448
815.747	0.551352
815.881	0.799827
816.016	0.959275
816.15	0.991313
816.285	0.983858
816.419	0.972645
816.554	0.965437
816.688	0.432074
816.823	0.081141
816.957	0.0502742
817.092	0.0422648
817.226	0.0405397
817.361	0.0391227
817.495	0.0364118
817.63	0.0359805
817.764	0.0353644
817.898	0.0340706
818.033	0.0336393
818.167	0.0325303
818.302	0.0331464
818.436	0.0326536
818.571	0.0319142
818.705	0.0315446
818.84	0.0308669
818.974	0.0316062
819.109	0.0314214
819.243	0.0314214
819.378	0.0309285
819.512	0.0310517
819.646	0.0309901
819.781	0.0299427
819.915	0.030374
820.05	0.0304356
820.184	0.0303124
820.319	0.0300043
820.453	0.0298811
820.588	0.0296963
820.722	0.029265
820.857	0.0299427
820.991	0.029265
821.126	0.0290802
821.26	0.0289569
821.394	0.0300043
821.529	0.029265
821.663	0.0286489
821.798	0.0293266
821.932	0.029265
822.067	0.0284641
822.201	0.0289569
822.336	0.0292034
822.47	0.0284024
822.605	0.0284641
822.739	0.029265
822.873	0.0295114
823.008	0.0280328
823.142	0.0288337
823.277	0.0283408
823.411	0.0289569
823.546	0.0290802
823.68	0.0280328
823.815	0.0288953
823.949	0.0278479
824.083	0.0285873
824.218	0.0285257
824.352	0.0279712
824.487	0.0284641
824.621	0.0285257
824.756	0.029265
824.89	0.028156
825.025	0.0282176
825.159	0.0290185
825.293	0.0285257
825.428	0.0284024
825.562	0.0282792
825.697	0.028156
825.831	0.0279712
825.966	0.0285257
826.1	0.028156
826.235	0.0282792
826.369	0.0285257
826.503	0.0276631
826.638	0.028156
826.772	0.0285257
826.907	0.0277863
827.041	0.0280944
827.176	0.0279712
827.31	0.0290185
827.445	0.0274783
827.579	0.0284024
827.713	0.0286489
827.848	0.0283408
827.982	0.0278479
828.117	0.0286489
828.251	0.0279712
828.386	0.027047
828.52	0.0279712
828.654	0.0285873
828.789	0.0280328
828.923	0.0277863
829.058	0.0287721
829.192	0.0284024
829.327	0.0269854
829.461	0.0274783
829.596	0.0286489
829.73	0.0282792
829.864	0.0284641
829.999	0.0277247
830.133	0.0278479
830.268	0.028156
830.402	0.0280944
830.537	0.0283408
830.671	0.0282792
830.805	0.0288337
830.94	0.0280328
831.074	0.0276631
831.209	0.0282176
831.343	0.0282176
831.478	0.0284024
831.612	0.0277247
831.746	0.0275399
831.881	0.0282176
832.015	0.0284641
832.15	0.0288953
832.284	0.028156
832.418	0.028156
832.553	0.0286489
832.687	0.0279712
832.822	0.0282792
832.956	0.0282792
833.091	0.0277863
833.225	0.0283408
833.359	0.0280944
833.494	0.0276015
833.628	0.0279096
833.763	0.0284024
833.897	0.0275399
834.032	0.0274167
834.166	0.0279096
834.3	0.0275399
834.435	0.028156
834.569	0.0280944
834.704	0.0273551
834.838	0.0280944
834.972	0.0282176
835.107	0.028156
835.241	0.0285873
835.376	0.0279712
835.51	0.0290802
835.645	0.0282792
835.779	0.0288953
835.913	0.0275399
836.048	0.0278479
836.182	0.0280944
836.317	0.0280328
836.451	0.0288337
836.585	0.0274783
836.72	0.0275399
836.854	0.0284024
836.989	0.0282792
837.123	0.0285873
837.257	0.0282176
837.392	0.0290185
837.526	0.0287721
837.661	0.0287721
837.795	0.0280944
837.929	0.0285873
838.064	0.0279096
838.198	0.0285257
838.333	0.0275399
838.467	0.0278479
838.602	0.0287721
838.736	0.0283408
838.87	0.028156
839.005	0.0287105
839.139	0.0284024
839.274	0.0290185
839.408	0.0284024
839.542	0.0271086
839.677	0.0280328
839.811	0.0277247
839.946	0.0284024
840.08	0.0275399
840.214	0.0275399
840.349	0.0280944
840.483	0.0277247
840.618	0.0284024
840.752	0.0285257
840.886	0.0279712
841.021	0.0279096
841.155	0.0277863
841.29	0.0282792
841.424	0.0282792
841.558	0.0282176
841.693	0.0276631
841.827	0.0280328
841.961	0.0280944
842.096	0.0285257
842.23	0.0279712
842.365	0.028156
842.499	0.0283408
842.633	0.0283408
842.768	0.0277247
842.902	0.0282176
843.037	0.0288953
843.171	0.028156
843.305	0.0276015
843.44	0.0273551
843.574	0.0278479
843.709	0.0284024
843.843	0.0279712
843.977	0.0282176
844.112	0.0274167
844.246	0.0273551
844.381	0.0280944
844.515	0.026739
844.649	0.0284024
844.784	0.0284024
844.918	0.0279712
845.052	0.0274167
845.187	0.0276631
845.321	0.0274783
845.456	0.028156
845.59	0.0283408
845.724	0.0273551
845.859	0.0283408
845.993	0.0277247
846.128	0.0279096
846.262	0.0282792
846.396	0.0279096
846.531	0.0283408
846.665	0.0280328
846.799	0.0277863
846.934	0.0286489
847.068	0.0280944
847.203	0.0277863
847.337	0.028156
847.471	0.0284024
847.606	0.0276631
847.74	0.0276631
847.874	0.0277863
848.009	0.0284641
848.143	0.0279096
848.278	0.0274167
848.412	0.0283408
848.546	0.0273551
848.681	0.0278479
848.815	0.0282176
848.949	0.0282792
849.084	0.0286489
849.218	0.0279712
849.353	0.0277863
849.487	0.0276631
849.621	0.0282792
849.756	0.0282792
849.89	0.0284024
850.024	0.0279712
850.159	0.0284024
850.293	0.028156
850.428	0.0283408
850.562	0.0288953
850.696	0.0283408
850.831	0.0276631
850.965	0.0282792
851.099	0.0295114
851.234	0.0279712
851.368	0.0274783
851.502	0.0279712
851.637	0.0288953
851.771	0.0280944
851.906	0.0284641
852.04	0.0284641
852.174	0.0278479
852.309	0.028156
852.443	0.0276015
852.577	0.0289569
852.712	0.0277863
852.846	0.0283408
852.98	0.0287105
853.115	0.0283408
853.249	0.0273551
853.384	0.0280328
853.518	0.0275399
853.652	0.0274167
853.787	0.0271086
853.921	0.0286489
854.055	0.0284641
854.19	0.0274783
854.324	0.0279096
854.458	0.0279096
854.593	0.0291418
854.727	0.0279712
854.861	0.0273551
854.996	0.0290802
855.13	0.0274783
855.265	0.0279096
855.399	0.0274167
855.533	0.0289569
855.668	0.0275399
855.802	0.0275399
855.936	0.0279096
856.071	0.0282792
856.205	0.0284024
856.339	0.0276015
856.474	0.0284641
856.608	0.0285257
856.742	0.0279712
856.877	0.0284641
857.011	0.0279712
857.145	0.0276631
857.28	0.0284641
857.414	0.0284641
857.549	0.0287721
857.683	0.0285873
857.817	0.0280944
857.952	0.0279712
858.086	0.0286489
858.22	0.0276015
858.355	0.0285257
858.489	0.0273551
858.623	0.0282176
858.758	0.0274783
858.892	0.0276015
859.026	0.028156
859.161	0.0279096
859.295	0.0279096
859.429	0.0280328
859.564	0.0286489
859.698	0.0278479
859.832	0.0285257
859.967	0.0277863
860.101	0.0282176
860.235	0.0287721
860.37	0.0287721
860.504	0.0287721
860.638	0.0285873
860.773	0.0286489
860.907	0.0278479
861.041	0.0279096
861.176	0.0277863
861.31	0.0282792
861.444	0.0277247
861.579	0.0276631
861.713	0.028156
861.847	0.0279096
861.982	0.0285873
862.116	0.028156
862.25	0.0284641
862.385	0.028156
862.519	0.0279096
862.653	0.0277247
862.788	0.0280328
862.922	0.0280328
863.056	0.0286489
863.191	0.0283408
863.325	0.028156
863.459	0.0279096
863.594	0.0285873
863.728	0.0295114
863.862	0.0279712
863.997	0.0277247
864.131	0.0280328
864.265	0.0284024
864.4	0.0279096
864.534	0.0276631
864.668	0.0290802
864.803	0.0280944
864.937	0.028156
865.071	0.0280328
865.206	0.0275399
865.34	0.0282176
865.474	0.0282792
865.609	0.0280328
865.743	0.0280328
865.877	0.0280944
866.012	0.0280944
866.146	0.0280328
866.28	0.0286489
866.415	0.0276015
866.549	0.0291418
866.683	0.0277863
866.818	0.0284641
866.952	0.0279712
867.086	0.0276015
867.221	0.0288337
867.355	0.0277247
867.489	0.0279096
867.623	0.0288337
867.758	0.0276631
867.892	0.0282792
868.026	0.0285873
868.161	0.0280328
868.295	0.0276631
868.429	0.0282792
868.564	0.0279712
868.698	0.0288953
868.832	0.0277863
868.967	0.0280944
869.101	0.0282176
869.235	0.0280944
869.37	0.0279712
869.504	0.0285257
869.638	0.0275399
869.773	0.0278479
869.907	0.0275399
870.041	0.0279096
870.175	0.0280944
870.31	0.0284641
870.444	0.0277863
870.578	0.0286489
870.713	0.028156
870.847	0.028156
870.981	0.0286489
871.116	0.0285257
871.25	0.0276015
871.384	0.0288953
871.519	0.0276631
871.653	0.0284641
871.787	0.0284641
871.921	0.0276015
872.056	0.0279712
872.19	0.0284641
872.324	0.0276015
872.459	0.0282792
872.593	0.0277247
872.727	0.0279096
872.862	0.0277247
872.996	0.0278479
873.13	0.0279096
873.264	0.0272318
873.399	0.0277863
873.533	0.0292034
873.667	0.0274783
873.802	0.0277863
873.936	0.0280944
874.07	0.0282792
874.205	0.0277247
874.339	0.0287105
874.473	0.0277863
874.607	0.0275399
874.742	0.028156
874.876	0.0284641
875.01	0.0285873
875.145	0.0282792
875.279	0.0277863
875.413	0.0280328
875.548	0.0277863
875.682	0.0285873
875.816	0.0274167
875.95	0.0285257
876.085	0.0277247
876.219	0.0278479
876.353	0.0287721
876.488	0.0274167
876.622	0.028156
876.756	0.0277247
876.89	0.0284024
877.025	0.0280944
877.159	0.0277247
877.293	0.0280944
877.428	0.0279712
877.562	0.0278479
877.696	0.0276631
877.83	0.0282792
877.965	0.0284641
878.099	0.0284024
878.233	0.0282176
878.368	0.0280944
878.502	0.0277863
878.636	0.0277863
878.77	0.0269854
878.905	0.0277863
879.039	0.0277247
879.173	0.0277247
879.308	0.0278479
879.442	0.0279712
879.576	0.0280944
879.71	0.0280328
879.845	0.0277863
879.979	0.0279096
880.113	0.0279712
880.248	0.028156
880.382	0.0279712
880.516	0.0277247
880.65	0.0287105
880.785	0.0277863
880.919	0.0278479
881.053	0.0278479
881.188	0.0274783
881.322	0.0280328
881.456	0.0278479
881.59	0.0280944
881.725	0.0282792
881.859	0.0279712
881.993	0.0276631
882.127	0.0285873
882.262	0.0284641
882.396	0.0277247
882.53	0.0279712
882.665	0.0280944
882.799	0.0275399
882.933	0.0277863
883.067	0.0275399
883.202	0.029265
883.336	0.0274167
883.47	0.0276631
883.604	0.028156
883.739	0.0282176
883.873	0.0284024
884.007	0.0290802
884.142	0.0280944
884.276	0.0285873
884.41	0.0274167
884.544	0.0277863
884.679	0.0277247
884.813	0.0288337
884.947	0.0272935
885.081	0.0290802
885.216	0.0272318
885.35	0.0278479
885.484	0.0279096
885.618	0.0280944
885.753	0.0282792
885.887	0.0274783
886.021	0.0269238
886.155	0.0282176
886.29	0.0280328
886.424	0.0284024
886.558	0.0277247
886.693	0.0286489
886.827	0.0284641
886.961	0.0269854
887.095	0.0284024
887.23	0.0277863
887.364	0.0273551
887.498	0.0285257
887.632	0.0276015
887.767	0.0279712
887.901	0.0277863
888.035	0.0278479
888.169	0.0282176
888.304	0.0285257
888.438	0.0271086
888.572	0.0276631
888.706	0.0286489
888.841	0.0280944
888.975	0.0276015
889.109	0.0300659
889.243	0.0278479
889.378	0.0283408
889.512	0.0276015
889.646	0.0277247
889.78	0.0280328
889.915	0.0280944
890.049	0.0276631
890.183	0.0272935
890.317	0.0282792
890.452	0.0269238
890.586	0.0276631
890.72	0.0282792
890.854	0.0279712
890.989	0.0277863
891.123	0.0282176
891.257	0.0286489
891.391	0.0284024
891.526	0.028156
891.66	0.0276015
891.794	0.0280944
891.928	0.0282176
892.063	0.0289569
892.197	0.0278479
892.331	0.0280328
892.465	0.0287721
892.6	0.0288953
892.734	0.0272318
892.868	0.0291418
893.002	0.0280944
893.137	0.0278479
893.271	0.028156
893.405	0.0269854
893.539	0.0278479
893.674	0.0285257
893.808	0.0284024
893.942	0.0277247
894.076	0.0279712
894.21	0.0290802
894.345	0.0271702
894.479	0.028156
894.613	0.0282792
894.747	0.0277863
894.882	0.028156
895.016	0.0285257
895.15	0.0276015
895.284	0.028156
895.419	0.0276631
895.553	0.0279096
895.687	0.0287721
895.821	0.0287721
895.956	0.0279712
896.09	0.0283408
896.224	0.0279712
896.358	0.0280944
896.492	0.0271702
896.627	0.0286489
896.761	0.0283408
896.895	0.0272935
897.029	0.0278479
897.164	0.0276015
897.298	0.0285873
897.432	0.0280328
897.566	0.0282176
897.701	0.0280944
897.835	0.0278479
897.969	0.0285257
898.103	0.028156
898.237	0.0279712
898.372	0.0278479
898.506	0.0279712
898.64	0.0280944
898.774	0.0282792
898.909	0.0273551
899.043	0.0274167
899.177	0.029573
899.311	0.0284641
899.445	0.0276631
899.58	0.0282792
899.714	0.0274167
899.848	0.0280944
899.982	0.0280328
900.117	0.0279712
900.251	0.0287721
900.385	0.0277863
900.519	0.0278479
900.653	0.0284641
900.788	0.0278479
900.922	0.0277247
901.056	0.0278479
901.19	0.0287721
901.325	0.0280328
901.459	0.0280944
901.593	0.0277247
901.727	0.028156
901.861	0.0275399
901.996	0.0269238
902.13	0.0279712
902.264	0.0282176
902.398	0.0284641
902.532	0.0290185
902.667	0.0283408
902.801	0.0285257
902.935	0.0277863
903.069	0.0290185
903.204	0.0284024
903.338	0.0278479
903.472	0.0282792
903.606	0.0280328
903.74	0.0277863
903.875	0.0284024
904.009	0.028156
904.143	0.0284024
904.277	0.028156
904.411	0.0276015
904.546	0.0282176
904.68	0.0284024
904.814	0.0278479
904.948	0.0282792
905.082	0.0268622
905.217	0.0283408
905.351	0.0274783
905.485	0.0279712
905.619	0.0282792
905.753	0.0274783
905.888	0.0285257
906.022	0.0285257
906.156	0.0279712
906.29	0.0277863
906.424	0.0282176
906.559	0.0279096
906.693	0.028156
906.827	0.0280328
906.961	0.0280944
907.095	0.0276015
907.23	0.0282176
907.364	0.0279096
907.498	0.0277863
907.632	0.0275399
907.766	0.0278479
907.901	0.0275399
908.035	0.0269854
908.169	0.0280944
908.303	0.0279096
908.437	0.0280328
908.572	0.0279712
908.706	0.028156
908.84	0.0284641
908.974	0.0277863
909.108	0.0284024
909.243	0.0287105
909.377	0.0277863
909.511	0.0277247
909.645	0.0284024
909.779	0.0272935
909.914	0.0284641
910.048	0.0278479
910.182	0.0277863
910.316	0.0279096
910.45	0.0285873
910.585	0.0277247
910.719	0.0274783
910.853	0.0282792
910.987	0.0272935
911.121	0.0283408
911.255	0.0269854
911.39	0.0284024
911.524	0.0286489
911.658	0.0284024
911.792	0.0279096
911.926	0.0275399
912.061	0.0266157
912.195	0.0272318
912.329	0.0279712
912.463	0.0285257
912.597	0.0277863
912.732	0.0282176
912.866	0.0288337
913	0.0284641
913.134	0.0278479
913.268	0.0274167
913.402	0.0289569
913.537	0.0288337
913.671	0.0278479
913.805	0.0276631
913.939	0.0275399
914.073	0.0280328
914.208	0.0276631
914.342	0.0282792
914.476	0.0276631
914.61	0.0279096
914.744	0.0291418
914.878	0.028156
915.013	0.028156
915.147	0.0279712
915.281	0.0279096
915.415	0.0276631
915.549	0.027047
915.683	0.0282792
915.818	0.0278479
915.952	0.0279096
916.086	0.0274783
916.22	0.0277863
916.354	0.0279712
916.488	0.0278479
916.623	0.0277863
916.757	0.0289569
916.891	0.0293882
917.025	0.0282176
917.159	0.028156
917.293	0.0278479
917.428	0.0277863
917.562	0.0280328
917.696	0.028156
917.83	0.0280944
917.964	0.0280944
918.098	0.0277247
918.233	0.0276015
918.367	0.0283408
918.501	0.0273551
918.635	0.028156
918.769	0.028156
918.903	0.0280328
919.038	0.0282792
919.172	0.0276015
919.306	0.0287105
919.44	0.0288953
919.574	0.0275399
919.708	0.0282792
919.843	0.0278479
919.977	0.0280328
920.111	0.0277247
920.245	0.0289569
920.379	0.0278479
920.513	0.0288337
920.648	0.0279712
920.782	0.0285257
920.916	0.0274167
921.05	0.0288337
921.184	0.0285873
921.318	0.0284641
921.453	0.0278479
921.587	0.0276015
921.721	0.0282792
921.855	0.0278479
921.989	0.0277863
922.123	0.0280328
922.257	0.0284641
922.392	0.0272935
922.526	0.0277247
922.66	0.0285873
922.794	0.0279096
922.928	0.0277863
923.062	0.0273551
923.197	0.0272935
923.331	0.0275399
923.465	0.0274167
923.599	0.0280328
923.733	0.0273551
923.867	0.0280328
924.001	0.0285257
924.136	0.0283408
924.27	0.0274783
924.404	0.0269238
924.538	0.0290185
924.672	0.0289569
924.806	0.0276631
924.94	0.0278479
925.075	0.0279096
925.209	0.0284024
925.343	0.0279712
925.477	0.0280944
925.611	0.0283408
925.745	0.0277247
925.879	0.0278479
926.014	0.0291418
926.148	0.0278479
926.282	0.0276631
926.416	0.0282792
926.55	0.0282176
926.684	0.0282176
926.818	0.0278479
926.953	0.0284024
927.087	0.0280328
927.221	0.0285873
927.355	0.0278479
927.489	0.0279712
927.623	0.0274783
927.757	0.0278479
927.892	0.0282176
928.026	0.0274167
928.16	0.0276631
928.294	0.0280328
928.428	0.0276631
928.562	0.0276015
928.696	0.0280944
928.831	0.0279096
928.965	0.0277863
929.099	0.028156
929.233	0.0278479
929.367	0.0285873
929.501	0.0280328
929.635	0.0283408
929.769	0.0280328
929.904	0.0286489
930.038	0.0279712
930.172	0.0274167
930.306	0.0277247
930.44	0.0277247
930.574	0.0285257
930.708	0.0288337
930.843	0.0278479
930.977	0.0272935
931.111	0.0276631
931.245	0.0282792
931.379	0.0285873
931.513	0.0287721
931.647	0.0278479
931.781	0.0277863
931.916	0.0284641
932.05	0.0276015
932.184	0.0282792
932.318	0.0283408
932.452	0.0285257
932.586	0.0283408
932.72	0.0280944
932.854	0.028156
932.989	0.0276631
933.123	0.0288953
933.257	0.0282176
933.391	0.0274167
933.525	0.0274167
933.659	0.0279712
933.793	0.0282792
933.927	0.0282176
934.061	0.0282792
934.196	0.0280944
934.33	0.0287721
934.464	0.0285873
934.598	0.0283408
934.732	0.0279712
934.866	0.0280328
935	0.0277863
935.134	0.0286489
935.269	0.0279096
935.403	0.0282792
935.537	0.0284641
935.671	0.0277247
935.805	0.028156
935.939	0.0284024
936.073	0.0283408
936.207	0.0276631
936.341	0.0284641
936.476	0.028156
936.61	0.0282176
936.744	0.0282792
936.878	0.0275399
937.012	0.0276631
937.146	0.0283408
937.28	0.0283408
937.414	0.0285873
937.548	0.0286489
937.683	0.0282792
937.817	0.0279096
937.951	0.0276631
938.085	0.0278479
938.219	0.0282176
938.353	0.0284024
938.487	0.0283408
938.621	0.0276015
938.755	0.028156
938.889	0.0280944
939.024	0.0288953
939.158	0.0272935
939.292	0.0280944
939.426	0.0279712
939.56	0.028156
939.694	0.0278479
939.828	0.0279712
939.962	0.0280328
940.096	0.0285257
940.231	0.028156
940.365	0.0278479
940.499	0.0282176
940.633	0.0280328
940.767	0.0279096
940.901	0.0284024
941.035	0.028156
941.169	0.0280944
941.303	0.0279712
941.437	0.0279096
941.571	0.0285873
941.706	0.0277247
941.84	0.0274783
941.974	0.0287105
942.108	0.0282176
942.242	0.0276631
942.376	0.0276015
942.51	0.0276631
942.644	0.0276631
942.778	0.0276631
942.912	0.0271702
943.047	0.0283408
943.181	0.028156
943.315	0.0278479
943.449	0.0277247
943.583	0.0282792
943.717	0.0273551
943.851	0.0283408
943.985	0.0276631
944.119	0.0282176
944.253	0.0277247
944.387	0.0277863
944.522	0.0285257
944.656	0.0286489
944.79	0.0271702
944.924	0.0271086
945.058	0.0285257
945.192	0.0279096
945.326	0.028156
945.46	0.028156
945.594	0.0279712
945.728	0.0275399
945.862	0.0276631
945.996	0.0285257
946.131	0.0277247
946.265	0.0283408
946.399	0.0282792
946.533	0.0280328
946.667	0.0277247
946.801	0.028156
946.935	0.0280328
947.069	0.0287105
947.203	0.0272935
947.337	0.0280944
947.471	0.0280328
947.605	0.0275399
947.739	0.0279712
947.874	0.0279712
948.008	0.0280944
948.142	0.0279712
948.276	0.0279712
948.41	0.0274783
948.544	0.0276631
948.678	0.0276015
948.812	0.028156
948.946	0.0272318
949.08	0.0276015
949.214	0.0284641
949.348	0.0282792
949.482	0.0284024
949.617	0.0285873
949.751	0.0285257
949.885	0.0273551
950.019	0.0269238
950.153	0.0274167
950.287	0.0279712
950.421	0.0280944
950.555	0.0277863
950.689	0.0272935
950.823	0.0288337
950.957	0.0278479
951.091	0.0274783
951.225	0.0286489
951.359	0.0275399
951.493	0.0278479
951.628	0.0273551
951.762	0.0274783
951.896	0.028156
952.03	0.0277247
952.164	0.0287105
952.298	0.0284024
952.432	0.0282792
952.566	0.0282176
952.7	0.0274167
952.834	0.0271086
952.968	0.0282792
953.102	0.0283408
953.236	0.0282176
953.37	0.0278479
953.504	0.0278479
953.639	0.0280944
953.773	0.0272318
953.907	0.0274783
954.041	0.0276631
954.175	0.0277247
954.309	0.0277863
954.443	0.0279712
954.577	0.0283408
954.711	0.0279712
954.845	0.0276015
954.979	0.0284641
955.113	0.0286489
955.247	0.0280944
955.381	0.0285873
955.515	0.0285873
955.649	0.0287721
955.783	0.0280328
955.917	0.0277247
956.052	0.0285257
956.186	0.0275399
956.32	0.0279712
956.454	0.0286489
956.588	0.0285257
956.722	0.0279096
956.856	0.0280328
956.99	0.0277247
957.124	0.0269238
957.258	0.0282176
957.392	0.0275399
957.526	0.0285873
957.66	0.0287105
957.794	0.0274783
957.928	0.0280944
958.062	0.0276631
958.196	0.0274167
958.33	0.0276631
958.464	0.0275399
958.598	0.0280944
958.733	0.0282792
958.867	0.0269238
959.001	0.0280944
959.135	0.0279096
959.269	0.0274167
959.403	0.0279096
959.537	0.0279712
959.671	0.0284024
959.805	0.0272935
959.939	0.0284641
960.073	0.0279712
960.207	0.0285257
960.341	0.0279712
960.475	0.0279096
960.609	0.0284641
960.743	0.0282176
960.877	0.027047
961.011	0.0282792
961.145	0.0274167
961.279	0.0279712
961.413	0.0271702
961.547	0.0279712
961.681	0.0271702
961.815	0.0288953
961.949	0.0275399
962.083	0.0285873
962.218	0.0278479
962.352	0.0282792
962.486	0.0279096
962.62	0.0284024
962.754	0.0277863
962.888	0.0283408
963.022	0.0282176
963.156	0.0286489
963.29	0.0282176
963.424	0.0282176
963.558	0.0280328
963.692	0.0279712
963.826	0.0275399
963.96	0.028156
964.094	0.0274167
964.228	0.0277247
964.362	0.0277247
964.496	0.0274167
964.63	0.027047
964.764	0.0279712
964.898	0.0279712
965.032	0.0280944
965.166	0.0286489
965.3	0.0283408
965.434	0.0276015
965.568	0.0274783
965.702	0.0286489
965.836	0.0276631
965.97	0.0275399
966.104	0.0276015
966.238	0.0284024
966.372	0.0285873
966.506	0.0275399
966.64	0.0274783
966.774	0.0268006
966.908	0.0277247
967.043	0.0274783
967.177	0.0272935
967.311	0.0288337
967.445	0.0276631
967.579	0.0280944
967.713	0.0277863
967.847	0.0285257
967.981	0.028156
968.115	0.0286489
968.249	0.028156
968.383	0.0280944
968.517	0.0279712
968.651	0.0280944
968.785	0.0284024
968.919	0.027047
969.053	0.0280328
969.187	0.0279712
969.321	0.0277863
969.455	0.028156
969.589	0.0277247
969.723	0.0283408
969.857	0.028156
969.991	0.0279096
970.125	0.0279712
970.259	0.0277247
970.393	0.0272935
970.527	0.0288953
970.661	0.0288953
970.795	0.0272935
970.929	0.0280328
971.063	0.0280944
971.197	0.0274783
971.331	0.0283408
971.465	0.0277247
971.599	0.0276631
971.733	0.028156
971.867	0.0284024
972.001	0.0276631
972.135	0.0285257
972.269	0.0286489
972.403	0.0277863
972.537	0.0282176
972.671	0.0282792
972.805	0.0276631
972.939	0.0279096
973.073	0.0279712
973.207	0.0275399
973.341	0.0287105
973.475	0.0282176
973.609	0.0272935
973.743	0.0285873
973.877	0.0280328
974.011	0.0279096
974.145	0.0274783
974.279	0.0274783
974.413	0.0280328
974.547	0.0283408
974.681	0.0278479
974.815	0.0272935
974.949	0.0276015
975.083	0.0282176
975.217	0.0282792
975.351	0.0280944
975.485	0.0284024
975.619	0.0279712
975.753	0.0280944
975.887	0.0274167
976.021	0.0278479
976.155	0.0289569
976.289	0.0277247
976.423	0.0277863
976.557	0.0279096
976.691	0.0282176
976.825	0.0282176
976.959	0.0278479
977.093	0.028156
977.227	0.0278479
977.361	0.0280944
977.495	0.0279712
977.629	0.0288953
977.763	0.0277863
977.897	0.0275399
978.031	0.0277863
978.165	0.0280328
978.299	0.0271086
978.433	0.0269854
978.567	0.0274783
978.701	0.0279712
978.835	0.0272318
978.969	0.0276631
979.103	0.0284024
979.237	0.0279712
979.371	0.0287105
979.505	0.0277863
979.639	0.0277247
979.773	0.0285257
979.907	0.0280944
980.041	0.0279712
980.175	0.0272318
980.308	0.0280944
980.442	0.0284024
980.576	0.0284641
980.71	0.0278479
980.844	0.0287105
980.978	0.0277247
981.112	0.0282792
981.246	0.0277247
981.38	0.0280944
981.514	0.0284641
981.648	0.0284641
981.782	0.0282176
981.916	0.0273551
982.05	0.0283408
982.184	0.0280328
982.318	0.0275399
982.452	0.0278479
982.586	0.0277247
982.72	0.0279096
982.854	0.0287105
982.988	0.0278479
983.122	0.0284024
983.256	0.0279712
983.39	0.0278479
983.524	0.0280328
983.658	0.0290185
983.792	0.0282792
983.926	0.0278479
984.06	0.0285257
984.194	0.0274783
984.328	0.0279712
984.462	0.0285873
984.596	0.0284641
984.73	0.0273551
984.864	0.028156
984.998	0.0280328
985.132	0.0277863
985.265	0.0271702
985.399	0.0277863
985.533	0.0279096
985.667	0.0279096
985.801	0.0277863
985.935	0.0279712
986.069	0.0279712
986.203	0.0279096
986.337	0.0285873
986.471	0.0275399
986.605	0.0286489
986.739	0.0277247
986.873	0.0295114
987.007	0.0287721
987.141	0.0275399
987.275	0.0280944
987.409	0.0279712
987.543	0.0282792
987.677	0.028156
987.811	0.0275399
987.945	0.0274167
988.079	0.0277863
988.213	0.0279712
988.347	0.0280328
988.481	0.0277247
988.614	0.0280944
988.748	0.0286489
988.882	0.0286489
989.016	0.0282792
989.15	0.0280944
989.284	0.0285873
989.418	0.0282792
989.552	0.0289569
989.686	0.0279712
989.82	0.028156
989.954	0.0284024
990.088	0.0285873
990.222	0.0280328
990.356	0.0279096
990.49	0.0284024
990.624	0.028156
990.758	0.028156
990.892	0.0278479
991.026	0.0273551
991.16	0.0277247
991.294	0.0274167
991.427	0.0277863
991.561	0.0285257
991.695	0.0277247
991.829	0.0282176
991.963	0.0274167
992.097	0.0276631
992.231	0.0285873
992.365	0.0279096
992.499	0.0279096
992.633	0.0282176
992.767	0.0271086
992.901	0.0280944
993.035	0.0279712
993.169	0.028156
993.303	0.0282176
993.437	0.028156
993.571	0.0274783
993.704	0.0286489
993.838	0.0276631
993.972	0.0280328
994.106	0.0275399
994.24	0.0285257
994.374	0.0276015
994.508	0.0277247
994.642	0.0277247
994.776	0.0286489
994.91	0.0271702
995.044	0.0285873
995.178	0.0278479
995.312	0.026739
995.446	0.0274783
995.58	0.0279096
995.714	0.0279096
995.847	0.0280944
995.981	0.0276631
996.115	0.0278479
996.249	0.0266773
996.383	0.0274167
996.517	0.0272935
996.651	0.0282176
996.785	0.0285257
996.919	0.0277247
997.053	0.0279712
997.187	0.0272318
997.321	0.0280944
997.455	0.0287105
997.589	0.0282792
997.722	0.0266773
997.856	0.0277247
997.99	0.027047
998.124	0.0289569
998.258	0.0277863
998.392	0.0289569
998.526	0.0277863
998.66	0.0277863
998.794	0.0274783
998.928	0.0275399
999.062	0.0280944
999.196	0.0278479
999.33	0.0266157
999.464	0.0285257
999.597	0.0288337
999.731	0.0287721
999.865	0.0279096
999.999	0.0275399
1000.13	0.0277247
1000.27	0.0278479
1000.4	0.0272318
1000.53	0.0280328
1000.67	0.027047
1000.8	0.0276015
1000.94	0.0279096
1001.07	0.0283408
1001.2	0.0278479
1001.34	0.0274167
1001.47	0.0286489
1001.61	0.0282792
1001.74	0.0277863
1001.87	0.0287105
1002.01	0.0284024
1002.14	0.028156
1002.28	0.0278479
1002.41	0.0283408
1002.54	0.0279096
1002.68	0.0280944
1002.81	0.0287721
1002.95	0.0285257
1003.08	0.0277863
1003.21	0.0276015
1003.35	0.0279712
1003.48	0.0280328
1003.61	0.0279096
1003.75	0.0280944
1003.88	0.0280328
1004.02	0.0283408
1004.15	0.0283408
1004.28	0.0283408
1004.42	0.0282176
1004.55	0.0278479
1004.69	0.0279712
1004.82	0.0285873
1004.95	0.0279712
1005.09	0.0276015
1005.22	0.0272935
1005.36	0.0283408
1005.49	0.0282792
1005.62	0.0272318
1005.76	0.0287105
1005.89	0.0284641
1006.03	0.0285873
1006.16	0.028156
1006.29	0.0279096
1006.43	0.0279096
1006.56	0.0274167
1006.69	0.0276015
1006.83	0.0280328
1006.96	0.0280944
1007.1	0.0272935
1007.23	0.0271086
1007.36	0.0282176
1007.5	0.0276631
1007.63	0.027047
1007.77	0.0282176
1007.9	0.0280328
1008.03	0.0277863
1008.17	0.0280944
1008.3	0.0290185
1008.44	0.0285873
1008.57	0.0288337
1008.7	0.0280944
1008.84	0.0285873
1008.97	0.0286489
1009.1	0.028156
1009.24	0.028156
1009.37	0.0279096
1009.51	0.0276015
1009.64	0.0280328
1009.77	0.0283408
1009.91	0.0280944
1010.04	0.0277247
1010.18	0.0280328
1010.31	0.0280944
1010.44	0.0274783
1010.58	0.028156
1010.71	0.0285873
1010.85	0.0284024
1010.98	0.0279096
1011.11	0.0279096
1011.25	0.0274783
1011.38	0.0274783
1011.51	0.0268622
1011.65	0.0275399
1011.78	0.0275399
1011.92	0.0279712
1012.05	0.0276631
1012.18	0.0282792
1012.32	0.0271086
1012.45	0.0280944
1012.59	0.0276631
1012.72	0.0282792
1012.85	0.0286489
1012.99	0.0276015
1013.12	0.0279712
1013.26	0.0287721
1013.39	0.0274783
1013.52	0.0285873
1013.66	0.0289569
1013.79	0.0290802
1013.92	0.0272318
1014.06	0.0277863
1014.19	0.0271702
1014.33	0.0283408
1014.46	0.0278479
1014.59	0.0273551
1014.73	0.0285873
1014.86	0.0278479
1015	0.0287105
1015.13	0.0279712
1015.26	0.0283408
1015.4	0.0282792
1015.53	0.0275399
1015.67	0.0271086
1015.8	0.0275399
1015.93	0.0285257
1016.07	0.0284641
1016.2	0.0285873
1016.33	0.0276631
1016.47	0.0280944
1016.6	0.0274167
1016.74	0.0274167
1016.87	0.0276631
1017	0.0284641
1017.14	0.0289569
1017.27	0.0279712
1017.41	0.0277247
1017.54	0.0276015
1017.67	0.0271086
1017.81	0.0271086
1017.94	0.0279096
1018.07	0.0272318
1018.21	0.0285873
1018.34	0.0280328
1018.48	0.0277247
1018.61	0.0287105
1018.74	0.0279096
1018.88	0.0282792
1019.01	0.0276015
1019.15	0.0274783
1019.28	0.0285257
1019.41	0.028156
1019.55	0.0285873
1019.68	0.0282792
1019.82	0.0276631
1019.95	0.0275399
1020.08	0.0277863
1020.22	0.0273551
1020.35	0.0287105
1020.48	0.0280328
1020.62	0.028156
1020.75	0.0278479
1020.89	0.0279096
1021.02	0.0285257
1021.15	0.028156
1021.29	0.0277247
1021.42	0.0279712
1021.56	0.0280944
1021.69	0.0285873
1021.82	0.0275399
1021.96	0.0279712
1022.09	0.0284641
1022.22	0.0276631
1022.36	0.0279712
1022.49	0.0276631
1022.63	0.0280328
1022.76	0.0279712
1022.89	0.0279712
1023.03	0.0284024
1023.16	0.0288953
1023.3	0.0282792
1023.43	0.0287721
1023.56	0.0279712
1023.7	0.0285873
1023.83	0.0290802
1023.96	0.0276631
1024.1	0.0276631
1024.23	0.0269854
1024.37	0.0287721
1024.5	0.0280328
1024.63	0.0287721
1024.77	0.028156
1024.9	0.0272318
1025.04	0.0269854
1025.17	0.0279096
1025.3	0.0287105
1025.44	0.0277247
1025.57	0.0274167
1025.7	0.0279712
1025.84	0.0282176
1025.97	0.028156
1026.11	0.0280328
1026.24	0.0286489
1026.37	0.0273551
1026.51	0.0279712
1026.64	0.0282176
1026.78	0.0276015
1026.91	0.0278479
1027.04	0.0279712
1027.18	0.0280944
1027.31	0.0275399
1027.44	0.0284641
1027.58	0.0279096
1027.71	0.0276631
1027.85	0.0279096
1027.98	0.0285873
1028.11	0.0276015
1028.25	0.028156
1028.38	0.0280944
1028.52	0.0288953
1028.65	0.0285257
1028.78	0.028156
1028.92	0.0283408
1029.05	0.0277247
1029.18	0.0284641
1029.32	0.0279096
1029.45	0.0277863
1029.59	0.0276015
1029.72	0.0284024
1029.85	0.0280328
1029.99	0.0279096
1030.12	0.0271702
1030.26	0.0287105
1030.39	0.0288337
1030.52	0.0279096
1030.66	0.0271702
1030.79	0.0284641
1030.92	0.0284641
1031.06	0.0287105
1031.19	0.0283408
1031.33	0.0273551
1031.46	0.0277247
1031.59	0.0277247
1031.73	0.0277247
1031.86	0.0279712
1031.99	0.028156
1032.13	0.027047
1032.26	0.0285873
1032.4	0.0279712
1032.53	0.0276015
1032.66	0.0277247
1032.8	0.0285257
1032.93	0.0278479
1033.07	0.0282176
1033.2	0.0276631
1033.33	0.0280328
1033.47	0.0282176
1033.6	0.0279096
1033.73	0.0279712
1033.87	0.0284024
1034	0.0280944
1034.14	0.0288953
1034.27	0.0280944
1034.4	0.0286489
1034.54	0.0289569
1034.67	0.0282792
1034.81	0.0276631
1034.94	0.0280944
1035.07	0.0282792
1035.21	0.0285873
1035.34	0.027047
1035.47	0.0277247
1035.61	0.0278479
1035.74	0.0284024
1035.88	0.0269854
1036.01	0.028156
1036.14	0.0276015
1036.28	0.0280944
1036.41	0.0285873
1036.54	0.0276015
1036.68	0.0272318
1036.81	0.0274167
1036.95	0.0282176
1037.08	0.0279712
1037.21	0.0276631
1037.35	0.0290185
1037.48	0.0278479
1037.62	0.028156
1037.75	0.0284641
1037.88	0.0280328
1038.02	0.0276015
1038.15	0.0286489
1038.28	0.0286489
1038.42	0.0280328
1038.55	0.0280944
1038.69	0.0277247
1038.82	0.0276015
1038.95	0.0284641
1039.09	0.0284024
1039.22	0.0277247
1039.35	0.0285257
1039.49	0.0277863
1039.62	0.0272935
1039.76	0.0287721
1039.89	0.0279712
1040.02	0.0280328
1040.16	0.0266773
1040.29	0.0280328
1040.43	0.0283408
1040.56	0.0287721
1040.69	0.0282792
1040.83	0.0276631
1040.96	0.0280328
1041.09	0.0284641
1041.23	0.0277247
1041.36	0.0287105
1041.5	0.0280328
1041.63	0.0285873
1041.76	0.0284641
1041.9	0.029265
1042.03	0.028156
1042.16	0.0277863
1042.3	0.0272318
1042.43	0.0280328
1042.57	0.0272935
1042.7	0.028156
1042.83	0.0279712
1042.97	0.0279712
1043.1	0.0280328
1043.23	0.0272935
1043.37	0.0284641
1043.5	0.0290185
1043.64	0.0279096
1043.77	0.0284024
1043.9	0.0282176
1044.04	0.028156
1044.17	0.0282792
1044.31	0.0277863
1044.44	0.0279096
1044.57	0.0285257
1044.71	0.0277247
1044.84	0.0274167
1044.97	0.0284641
1045.11	0.0280328
1045.24	0.0284024
1045.38	0.0284024
1045.51	0.0274167
1045.64	0.0285257
1045.78	0.0282176
1045.91	0.0277863
1046.04	0.0279712
1046.18	0.0274783
1046.31	0.0272935
1046.45	0.0275399
1046.58	0.0277863
1046.71	0.0280328
1046.85	0.0271086
1046.98	0.0276015
1047.11	0.0285257
1047.25	0.0274167
1047.38	0.0272935
1047.52	0.0274167
1047.65	0.0285257
1047.78	0.0279096
1047.92	0.0274783
1048.05	0.0280328
1048.18	0.0271086
1048.32	0.0282792
1048.45	0.0282792
1048.59	0.0288337
1048.72	0.0275399
1048.85	0.0279096
1048.99	0.0282176
1049.12	0.0279712
1049.25	0.0282792
1049.39	0.0280944
1049.52	0.0277863
1049.66	0.0285257
1049.79	0.0280944
1049.92	0.0277247
1050.06	0.0282792
1050.19	0.0279712
1050.33	0.0288337
1050.46	0.028156
1050.59	0.0283408
1050.73	0.028156
1050.86	0.0277863
1050.99	0.0282176
1051.13	0.0278479
1051.26	0.0282792
1051.4	0.0283408
1051.53	0.0289569
1051.66	0.0277863
1051.8	0.0275399
1051.93	0.0278479
1052.06	0.0276631
1052.2	0.0276631
1052.33	0.0272935
1052.47	0.0282792
1052.6	0.0280328
1052.73	0.0285257
1052.87	0.0286489
1053	0.0284024
1053.13	0.0291418
1053.27	0.0287721
1053.4	0.0279712
1053.54	0.0279096
1053.67	0.0279712
1053.8	0.0284641
1053.94	0.0288953
1054.07	0.0279712
1054.2	0.0287105
1054.34	0.0280944
1054.47	0.0279712
1054.61	0.0288953
1054.74	0.0280944
1054.87	0.0274167
1055.01	0.0277863
1055.14	0.0274167
1055.27	0.0279096
1055.41	0.0279096
1055.54	0.0279096
1055.68	0.0277247
1055.81	0.0276631
1055.94	0.0279096
1056.08	0.0288337
1056.21	0.0276015
1056.34	0.028156
1056.48	0.0276015
1056.61	0.0279712
1056.75	0.0282792
1056.88	0.0277247
1057.01	0.0282792
1057.15	0.0287721
1057.28	0.0273551
1057.41	0.0279096
1057.55	0.0276015
1057.68	0.0282792
1057.82	0.0287105
1057.95	0.0286489
1058.08	0.0280328
1058.22	0.0275399
1058.35	0.0283408
1058.48	0.0287105
1058.62	0.0280944
1058.75	0.0275399
1058.89	0.0292034
1059.02	0.0280944
1059.15	0.0276631
1059.29	0.0278479
1059.42	0.0271702
1059.55	0.0286489
1059.69	0.0285257
1059.82	0.0282176
1059.96	0.0279712
1060.09	0.0284024
1060.22	0.0272935
1060.36	0.0275399
1060.49	0.0282792
1060.62	0.0279096
1060.76	0.0280944
1060.89	0.0275399
1061.03	0.0288337
1061.16	0.0277863
1061.29	0.0282792
1061.43	0.0277863
1061.56	0.0271702
1061.69	0.0275399
1061.83	0.0276015
1061.96	0.0282792
1062.1	0.028156
1062.23	0.0277247
1062.36	0.0284641
1062.5	0.0280944
1062.63	0.0282176
1062.76	0.0278479
1062.9	0.028156
1063.03	0.0287721
1063.17	0.0288953
1063.3	0.0287105
1063.43	0.0284024
1063.57	0.0277863
1063.7	0.0284024
1063.83	0.0280944
1063.97	0.0283408
1064.1	0.0284024
1064.23	0.0282176
1064.37	0.0276631
1064.5	0.0274167
1064.64	0.028156
1064.77	0.0278479
1064.9	0.0279096
1065.04	0.0282792
1065.17	0.0280328
1065.3	0.0287105
1065.44	0.0277863
1065.57	0.0286489
1065.71	0.0285873
1065.84	0.0279096
1065.97	0.028156
1066.11	0.0280328
1066.24	0.0282176
1066.37	0.0282792
1066.51	0.0279096
1066.64	0.0277863
1066.78	0.0284641
1066.91	0.0276631
1067.04	0.0282792
1067.18	0.0277247
1067.31	0.0289569
1067.44	0.0282176
1067.58	0.0284024
1067.71	0.0280328
1067.85	0.0282792
1067.98	0.0282176
1068.11	0.0283408
1068.25	0.0276015
1068.38	0.0276015
1068.51	0.0287721
1068.65	0.0272935
1068.78	0.0276631
1068.92	0.028156
1069.05	0.0275399
1069.18	0.0279096
1069.32	0.0284641
1069.45	0.0279096
1069.58	0.028156
1069.72	0.0277247
1069.85	0.0272935
1069.98	0.0279712
1070.12	0.0275399
1070.25	0.0280944
1070.39	0.028156
1070.52	0.0277863
1070.65	0.0276631
1070.79	0.0280944
1070.92	0.0274783
1071.05	0.0277863
1071.19	0.0287105
1071.32	0.0283408
1071.46	0.0274167
1071.59	0.0287105
1071.72	0.0274783
1071.86	0.0277247
1071.99	0.0275399
1072.12	0.0279096
1072.26	0.0280328
1072.39	0.0276015
1072.53	0.0290185
1072.66	0.0288337
1072.79	0.0287105
1072.93	0.0286489
1073.06	0.0272318
1073.19	0.0274783
1073.33	0.0280328
1073.46	0.0280944
1073.59	0.0284024
1073.73	0.0277247
1073.86	0.0282792
1074	0.0272318
1074.13	0.0283408
1074.26	0.0291418
1074.4	0.026739
1074.53	0.0279096
1074.66	0.0280944
1074.8	0.0279096
1074.93	0.0264309
1075.07	0.0279096
1075.2	0.0274783
1075.33	0.0277247
1075.47	0.0275399
1075.6	0.0275399
1075.73	0.0287721
1075.87	0.0282792
1076	0.0283408
1076.14	0.0280944
1076.27	0.0282792
1076.4	0.0277247
1076.54	0.0280944
1076.67	0.0282176
1076.8	0.0272318
1076.94	0.0284641
1077.07	0.0277247
1077.2	0.0284024
1077.34	0.0285873
1077.47	0.0282176
1077.61	0.0279096
1077.74	0.0280328
1077.87	0.0280328
1078.01	0.0286489
1078.14	0.0291418
1078.27	0.0284024
1078.41	0.0280944
1078.54	0.0284641
1078.68	0.0278479
1078.81	0.0276015
1078.94	0.0279712
1079.08	0.0280328
1079.21	0.0282792
1079.34	0.0276015
1079.48	0.0290185
1079.61	0.028156
1079.74	0.0277863
1079.88	0.0287721
1080.01	0.0288337
1080.15	0.0279096
1080.28	0.0284641
1080.41	0.0282176
1080.55	0.0279096
1080.68	0.0279712
1080.81	0.0282792
1080.95	0.0284024
1081.08	0.0282176
1081.22	0.027047
1081.35	0.0287721
1081.48	0.0277247
1081.62	0.0277247
1081.75	0.0285257
1081.88	0.0280944
1082.02	0.028156
1082.15	0.0286489
1082.28	0.0284641
1082.42	0.0282792
1082.55	0.0286489
1082.69	0.0287721
1082.82	0.0283408
1082.95	0.0276015
1083.09	0.0280944
1083.22	0.0284641
1083.35	0.0289569
1083.49	0.0278479
1083.62	0.0287105
1083.75	0.0280328
1083.89	0.0276015
1084.02	0.0287105
1084.16	0.0279712
1084.29	0.0274783
1084.42	0.0284641
1084.56	0.0273551
1084.69	0.028156
1084.82	0.0276631
1084.96	0.0277247
1085.09	0.0283408
1085.23	0.0279712
1085.36	0.0282176
1085.49	0.0279712
1085.63	0.0278479
1085.76	0.0276015
1085.89	0.0288953
1086.03	0.0279096
1086.16	0.0277863
1086.29	0.0275399
1086.43	0.0277863
1086.56	0.0289569
1086.7	0.0286489
1086.83	0.0280944
1086.96	0.0282792
1087.1	0.0277247
1087.23	0.0286489
1087.36	0.0274167
1087.5	0.0277247
1087.63	0.0280944
1087.76	0.0280328
1087.9	0.0280328
1088.03	0.0277863
1088.17	0.0288953
1088.3	0.0282176
1088.43	0.0286489
1088.57	0.0290802
1088.7	0.0282176
1088.83	0.0284024
1088.97	0.0279712
1089.1	0.0277863
1089.24	0.0283408
1089.37	0.028156
1089.5	0.0283408
1089.64	0.0276631
1089.77	0.0274783
1089.9	0.0285873
1090.04	0.0280328
1090.17	0.0277863
1090.3	0.0280328
1090.44	0.028156
1090.57	0.028156
1090.71	0.0282176
1090.84	0.0277247
1090.97	0.0279712
1091.11	0.0284024
1091.24	0.0272935
1091.37	0.0282176
1091.51	0.0284641
1091.64	0.0284641
1091.77	0.0284641
1091.91	0.0285257
1092.04	0.0282792
1092.18	0.0280328
1092.31	0.0289569
1092.44	0.0272318
1092.58	0.0272318
1092.71	0.0274783
1092.84	0.0275399
1092.98	0.0274783
1093.11	0.0285873
1093.24	0.0271086
1093.38	0.0279096
1093.51	0.0284024
1093.65	0.0273551
1093.78	0.028156
1093.91	0.0273551
1094.05	0.0276631
1094.18	0.0283408
1094.31	0.0280328
1094.45	0.0287105
1094.58	0.0286489
1094.71	0.0279712
1094.85	0.0277247
1094.98	0.0279096
1095.12	0.0283408
1095.25	0.0272935
1095.38	0.0277863
1095.52	0.0279712
1095.65	0.0279096
1095.78	0.0274167
1095.92	0.0279712
1096.05	0.0290802
1096.18	0.0272935
1096.32	0.0277863
1096.45	0.0278479
1096.59	0.0291418
1096.72	0.0277247
1096.85	0.0271702
1096.99	0.0286489
1097.12	0.0279712
1097.25	0.0279096
1097.39	0.0279712
1097.52	0.0277247
1097.65	0.0289569
1097.79	0.0273551
1097.92	0.0275399
1098.06	0.0285257
1098.19	0.0274783
1098.32	0.0277247
1098.46	0.0282176
1098.59	0.0282792
1098.72	0.0280328
1098.86	0.0280944
1098.99	0.0285873
1099.12	0.0285873
1099.26	0.0271086
1099.39	0.0284024
1099.53	0.0286489
1099.66	0.0274783
1099.79	0.0276631
1099.93	0.0280328
1100.06	0.0282176
1100.19	0.028156
1100.33	0.0269238
1100.46	0.0285873
1100.59	0.0286489
1100.73	0.0282176
1100.86	0.0287105
1100.99	0.0277247
1101.13	0.0278479
1101.26	0.0276631
1101.4	0.0278479
1101.53	0.0277863
1101.66	0.0288953
1101.8	0.0277247
1101.93	0.0272318
1102.06	0.0279712
1102.2	0.0276015
1102.33	0.0285873
1102.46	0.027047
1102.6	0.0279096
1102.73	0.0279096
1102.87	0.028156
1103	0.0277863
1103.13	0.0276631
1103.27	0.0276631
1103.4	0.0272935
1103.53	0.0287721
1103.67	0.0285257
1103.8	0.0286489
1103.93	0.028156
1104.07	0.0282792
1104.2	0.0278479
1104.34	0.0277863
1104.47	0.0279712
1104.6	0.0271702
1104.74	0.0280944
1104.87	0.0287105
1105	0.0283408
1105.14	0.0282176
1105.27	0.0276631
1105.4	0.0287721
1105.54	0.0282176
1105.67	0.0283408
1105.8	0.0280328
1105.94	0.0278479
1106.07	0.0276631
1106.21	0.0283408
1106.34	0.0284024
1106.47	0.0279712
1106.61	0.0277863
1106.74	0.028156
1106.87	0.0275399
1107.01	0.0285257
1107.14	0.0277863
1107.27	0.0275399
1107.41	0.0290802
1107.54	0.0273551

