Source: Spectrum Viewer

Chart: Pulse Spectrum

Series: 
Wavelength (nm)	S (a.u.)
617.638	0.0288775
617.773	0.0278126
617.908	0.0291907
618.043	0.0289401
618.178	0.0287522
618.313	0.0282511
618.448	0.0288148
618.583	0.0279379
618.718	0.0286896
618.853	0.0285016
618.988	0.0282511
619.123	0.0285643
619.258	0.0285643
619.394	0.0282511
619.529	0.0278752
619.664	0.0288775
619.799	0.0273741
619.934	0.0281258
620.069	0.0282511
620.204	0.0277499
620.339	0.0285016
620.474	0.0280631
620.609	0.0286269
620.744	0.0290028
620.879	0.0288775
621.014	0.0285643
621.149	0.028439
621.284	0.0274367
621.419	0.0285016
621.554	0.0280005
621.689	0.0283763
621.825	0.0281884
621.96	0.0280005
622.095	0.0283763
622.23	0.028439
622.365	0.0281884
622.5	0.0282511
622.635	0.0285643
622.77	0.0287522
622.905	0.0276247
623.04	0.0295039
623.175	0.0274367
623.31	0.0283137
623.445	0.0283763
623.58	0.0288775
623.715	0.0287522
623.85	0.0283137
623.985	0.028439
624.12	0.0282511
624.255	0.0274994
624.39	0.028439
624.525	0.0280005
624.661	0.0290028
624.796	0.0286269
624.931	0.028439
625.066	0.0287522
625.201	0.0290654
625.336	0.0285016
625.471	0.0288148
625.606	0.028439
625.741	0.0277499
625.876	0.0281884
626.011	0.0280631
626.146	0.0290028
626.281	0.0286269
626.416	0.0287522
626.551	0.029316
626.686	0.0291907
626.821	0.028439
626.956	0.0290028
627.091	0.028439
627.226	0.0278126
627.361	0.0289401
627.496	0.0271862
627.631	0.0277499
627.766	0.0289401
627.901	0.0290028
628.036	0.0278126
628.171	0.0288148
628.307	0.0283137
628.442	0.0289401
628.577	0.0283763
628.712	0.0276873
628.847	0.0282511
628.982	0.0290654
629.117	0.0288148
629.252	0.0292533
629.387	0.0290654
629.522	0.0280005
629.657	0.0292533
629.792	0.0285016
629.927	0.0276873
630.062	0.0283137
630.197	0.0276873
630.332	0.0277499
630.467	0.0283137
630.602	0.0286269
630.737	0.0276873
630.872	0.0290028
631.007	0.0283763
631.142	0.0283137
631.277	0.0285643
631.412	0.0283763
631.547	0.0283763
631.682	0.028439
631.817	0.0283763
631.952	0.0292533
632.087	0.0281884
632.222	0.0274367
632.357	0.0285016
632.492	0.0281884
632.627	0.0288775
632.762	0.0283763
632.897	0.0287522
633.032	0.0281258
633.167	0.0278126
633.302	0.0281884
633.437	0.0286896
633.572	0.0283763
633.707	0.0285643
633.842	0.0282511
633.978	0.0286269
634.113	0.0280631
634.248	0.0280005
634.383	0.030005
634.518	0.028439
634.653	0.0290654
634.788	0.0283137
634.923	0.0286269
635.058	0.0285643
635.193	0.0290654
635.328	0.028439
635.463	0.0286896
635.598	0.0279379
635.733	0.0285643
635.868	0.0280631
636.003	0.0291907
636.138	0.0291907
636.273	0.0290654
636.408	0.0281258
636.543	0.0285643
636.678	0.0281884
636.813	0.0290654
636.948	0.0286896
637.083	0.0280631
637.218	0.0285016
637.353	0.0286269
637.488	0.0288148
637.623	0.0288148
637.758	0.0285643
637.893	0.0289401
638.028	0.0288148
638.163	0.0288775
638.298	0.0285016
638.433	0.0288148
638.568	0.0272488
638.703	0.0290028
638.838	0.0295039
638.973	0.028439
639.108	0.028439
639.243	0.028439
639.378	0.0288148
639.513	0.0281884
639.648	0.0290654
639.783	0.0281884
639.918	0.0277499
640.053	0.028439
640.188	0.0278752
640.323	0.0286896
640.458	0.0286269
640.593	0.0280631
640.728	0.0289401
640.863	0.0279379
640.998	0.0287522
641.133	0.0291907
641.268	0.0282511
641.403	0.0281884
641.538	0.0283137
641.673	0.0286269
641.808	0.0289401
641.943	0.0280631
642.078	0.0280631
642.213	0.0288148
642.348	0.0281884
642.483	0.0283763
642.618	0.0286269
642.753	0.0291907
642.888	0.027562
643.023	0.0286896
643.158	0.0281258
643.293	0.029128
643.428	0.0282511
643.563	0.0294412
643.698	0.0283137
643.833	0.0290654
643.968	0.0281258
644.103	0.0277499
644.237	0.0290028
644.372	0.0283763
644.507	0.0278752
644.642	0.0279379
644.777	0.0286269
644.912	0.0282511
645.047	0.0286896
645.182	0.0285016
645.317	0.028439
645.452	0.0290654
645.587	0.0287522
645.722	0.029128
645.857	0.0288148
645.992	0.0285643
646.127	0.0286269
646.262	0.0288775
646.397	0.0288148
646.532	0.0287522
646.667	0.0286896
646.802	0.027562
646.937	0.0286269
647.072	0.0281258
647.207	0.0280005
647.342	0.0286896
647.477	0.0280005
647.612	0.029128
647.747	0.0286896
647.882	0.0289401
648.017	0.0277499
648.152	0.0285643
648.287	0.0283763
648.422	0.0280631
648.557	0.0280005
648.692	0.0285016
648.827	0.0286896
648.962	0.0290654
649.097	0.0286269
649.232	0.0291907
649.367	0.0290654
649.502	0.0276873
649.637	0.0287522
649.772	0.0276247
649.906	0.0285016
650.041	0.0288775
650.176	0.0281258
650.311	0.0282511
650.446	0.0277499
650.581	0.0290654
650.716	0.0283763
650.851	0.0287522
650.986	0.0280631
651.121	0.0285643
651.256	0.0282511
651.391	0.0288148
651.526	0.0291907
651.661	0.0283763
651.796	0.0280631
651.931	0.0270609
652.066	0.0288148
652.201	0.0280631
652.336	0.0281884
652.471	0.0289401
652.606	0.0288148
652.741	0.029128
652.876	0.028439
653.011	0.0280005
653.146	0.0283137
653.281	0.0282511
653.415	0.0285016
653.55	0.0290654
653.685	0.0280631
653.82	0.0280005
653.955	0.0281258
654.09	0.0287522
654.225	0.0288148
654.36	0.0281884
654.495	0.0278126
654.63	0.0276247
654.765	0.0286269
654.9	0.028439
655.035	0.0291907
655.17	0.0281884
655.305	0.0280631
655.44	0.0279379
655.575	0.0285016
655.71	0.0283763
655.845	0.0281258
655.98	0.0290028
656.115	0.0287522
656.25	0.0277499
656.384	0.0280005
656.519	0.0278752
656.654	0.0288148
656.789	0.0279379
656.924	0.0282511
657.059	0.0285643
657.194	0.0281884
657.329	0.0285643
657.464	0.0283137
657.599	0.0290654
657.734	0.0280631
657.869	0.0295665
658.004	0.0285643
658.139	0.0280631
658.274	0.0274994
658.409	0.0281884
658.544	0.0281884
658.679	0.0292533
658.813	0.0281884
658.948	0.0291907
659.083	0.0286896
659.218	0.0288148
659.353	0.0292533
659.488	0.0288148
659.623	0.0290028
659.758	0.0279379
659.893	0.0285016
660.028	0.0286269
660.163	0.0282511
660.298	0.0285016
660.433	0.0285016
660.568	0.0287522
660.703	0.0288775
660.838	0.0288148
660.972	0.0282511
661.107	0.0286896
661.242	0.0292533
661.377	0.028439
661.512	0.0277499
661.647	0.0273741
661.782	0.0283137
661.917	0.0285016
662.052	0.0286896
662.187	0.0277499
662.322	0.0277499
662.457	0.0292533
662.592	0.028439
662.727	0.0283763
662.862	0.028439
662.996	0.0286896
663.131	0.0288148
663.266	0.0283763
663.401	0.0285016
663.536	0.0282511
663.671	0.028439
663.806	0.0283137
663.941	0.0289401
664.076	0.028439
664.211	0.0287522
664.346	0.0290028
664.481	0.029316
664.616	0.0285016
664.75	0.0281258
664.885	0.0274994
665.02	0.0285643
665.155	0.0283137
665.29	0.0283763
665.425	0.0289401
665.56	0.0287522
665.695	0.0285016
665.83	0.028439
665.965	0.0279379
666.1	0.0279379
666.235	0.0288775
666.37	0.0280631
666.504	0.0287522
666.639	0.0293786
666.774	0.0285643
666.909	0.0280631
667.044	0.0282511
667.179	0.0271235
667.314	0.0285643
667.449	0.0274367
667.584	0.0285643
667.719	0.0282511
667.854	0.0288148
667.989	0.0286896
668.123	0.0285643
668.258	0.0280631
668.393	0.029316
668.528	0.0286896
668.663	0.0285016
668.798	0.0281258
668.933	0.0279379
669.068	0.0285643
669.203	0.0290028
669.338	0.0271862
669.473	0.028439
669.607	0.0288148
669.742	0.0285643
669.877	0.0279379
670.012	0.0274994
670.147	0.0286896
670.282	0.0281884
670.417	0.0291907
670.552	0.0286896
670.687	0.0281258
670.822	0.0288775
670.957	0.0280631
671.091	0.0283137
671.226	0.0286269
671.361	0.0288148
671.496	0.029128
671.631	0.0288148
671.766	0.0285643
671.901	0.028439
672.036	0.0278126
672.171	0.0293786
672.306	0.0278126
672.44	0.028439
672.575	0.0287522
672.71	0.0276247
672.845	0.0285016
672.98	0.0283763
673.115	0.0279379
673.25	0.0287522
673.385	0.0277499
673.52	0.0286269
673.655	0.0283763
673.789	0.0286896
673.924	0.028439
674.059	0.0281258
674.194	0.0283137
674.329	0.0290654
674.464	0.0285016
674.599	0.0288775
674.734	0.0285016
674.869	0.0294412
675.003	0.0286269
675.138	0.0280631
675.273	0.0283763
675.408	0.0283763
675.543	0.0286896
675.678	0.028439
675.813	0.0279379
675.948	0.0291907
676.083	0.027562
676.217	0.029128
676.352	0.0289401
676.487	0.0277499
676.622	0.0288148
676.757	0.0289401
676.892	0.0282511
677.027	0.0286896
677.162	0.0293786
677.297	0.028439
677.431	0.0283137
677.566	0.0289401
677.701	0.0292533
677.836	0.0286269
677.971	0.028439
678.106	0.029128
678.241	0.029316
678.376	0.028439
678.511	0.0286896
678.645	0.0282511
678.78	0.0280631
678.915	0.0286269
679.05	0.0294412
679.185	0.0295665
679.32	0.0287522
679.455	0.0282511
679.59	0.028439
679.724	0.0281884
679.859	0.0288148
679.994	0.0281884
680.129	0.0282511
680.264	0.0279379
680.399	0.0286896
680.534	0.0287522
680.669	0.028439
680.803	0.0281884
680.938	0.0294412
681.073	0.0290654
681.208	0.0280631
681.343	0.0288775
681.478	0.0285016
681.613	0.0282511
681.748	0.0287522
681.882	0.0276247
682.017	0.028439
682.152	0.0289401
682.287	0.0278752
682.422	0.0283763
682.557	0.0286896
682.692	0.0274994
682.827	0.0288148
682.961	0.029128
683.096	0.0281258
683.231	0.0283763
683.366	0.0281258
683.501	0.0289401
683.636	0.0289401
683.771	0.0288148
683.906	0.0294412
684.04	0.0278126
684.175	0.0288148
684.31	0.0278126
684.445	0.0283137
684.58	0.0286269
684.715	0.028439
684.85	0.028439
684.984	0.029128
685.119	0.0285643
685.254	0.0283137
685.389	0.0280631
685.524	0.029128
685.659	0.0283763
685.794	0.0283137
685.928	0.0283763
686.063	0.0278752
686.198	0.0283137
686.333	0.0281258
686.468	0.0286269
686.603	0.0289401
686.738	0.0290654
686.872	0.0290654
687.007	0.028439
687.142	0.0277499
687.277	0.0276247
687.412	0.0278126
687.547	0.028439
687.682	0.029128
687.816	0.0289401
687.951	0.0267477
688.086	0.0280005
688.221	0.0279379
688.356	0.0283763
688.491	0.0285016
688.626	0.0274994
688.76	0.0294412
688.895	0.0281258
689.03	0.0286896
689.165	0.0287522
689.3	0.028439
689.435	0.0290654
689.57	0.0289401
689.704	0.0283137
689.839	0.0281884
689.974	0.0279379
690.109	0.0287522
690.244	0.0287522
690.379	0.0285016
690.513	0.0277499
690.648	0.0279379
690.783	0.028439
690.918	0.028439
691.053	0.0290028
691.188	0.0286896
691.323	0.0286269
691.457	0.0295039
691.592	0.0289401
691.727	0.0280631
691.862	0.0286896
691.997	0.0283763
692.132	0.0288775
692.266	0.0296292
692.401	0.0285643
692.536	0.0280005
692.671	0.0276873
692.806	0.0285016
692.941	0.029128
693.075	0.0286896
693.21	0.0280005
693.345	0.0283763
693.48	0.0285016
693.615	0.029128
693.75	0.0280631
693.885	0.0281884
694.019	0.0286896
694.154	0.0281884
694.289	0.0281258
694.424	0.0288775
694.559	0.0289401
694.694	0.0295665
694.828	0.0294412
694.963	0.0283763
695.098	0.028439
695.233	0.0287522
695.368	0.028439
695.503	0.0283137
695.637	0.0290654
695.772	0.0279379
695.907	0.0283763
696.042	0.0270609
696.177	0.0286896
696.312	0.0288775
696.446	0.0281258
696.581	0.0295665
696.716	0.0287522
696.851	0.0289401
696.986	0.0285016
697.12	0.0286269
697.255	0.0291907
697.39	0.0287522
697.525	0.0290028
697.66	0.0292533
697.795	0.0288148
697.929	0.0286896
698.064	0.0301303
698.199	0.0280005
698.334	0.029128
698.469	0.0280631
698.604	0.0283137
698.738	0.0287522
698.873	0.0286896
699.008	0.0290028
699.143	0.0287522
699.278	0.028439
699.412	0.0273115
699.547	0.028439
699.682	0.0289401
699.817	0.028439
699.952	0.0290028
700.087	0.0290654
700.221	0.0271862
700.356	0.028439
700.491	0.0290028
700.626	0.0282511
700.761	0.0283763
700.895	0.0282511
701.03	0.0293786
701.165	0.0282511
701.3	0.0285016
701.435	0.0289401
701.57	0.0273115
701.704	0.0286269
701.839	0.0280005
701.974	0.0281884
702.109	0.0278752
702.244	0.0285643
702.378	0.0289401
702.513	0.0282511
702.648	0.0281884
702.783	0.028439
702.918	0.0298171
703.052	0.0283137
703.187	0.0285643
703.322	0.0280631
703.457	0.0286269
703.592	0.0283137
703.727	0.0276873
703.861	0.0289401
703.996	0.0286269
704.131	0.0271235
704.266	0.0276247
704.401	0.028439
704.535	0.0289401
704.67	0.0283137
704.805	0.028439
704.94	0.0285016
705.075	0.0278752
705.209	0.029316
705.344	0.029128
705.479	0.0286269
705.614	0.0287522
705.749	0.0287522
705.883	0.028439
706.018	0.0280631
706.153	0.0286269
706.288	0.0288148
706.423	0.0287522
706.557	0.0280005
706.692	0.0289401
706.827	0.0279379
706.962	0.0280005
707.097	0.0285016
707.231	0.0288775
707.366	0.0285643
707.501	0.0283763
707.636	0.0285643
707.771	0.0285643
707.905	0.0285643
708.04	0.0281884
708.175	0.0287522
708.31	0.0288148
708.445	0.0286269
708.579	0.0283137
708.714	0.0282511
708.849	0.0281258
708.984	0.0281884
709.118	0.0286896
709.253	0.0283763
709.388	0.0288775
709.523	0.0285016
709.658	0.0278126
709.792	0.0293786
709.927	0.0286269
710.062	0.028439
710.197	0.0285016
710.332	0.0288148
710.466	0.0288148
710.601	0.0283763
710.736	0.029316
710.871	0.0281884
711.006	0.0280005
711.14	0.0272488
711.275	0.0291907
711.41	0.0286896
711.545	0.029128
711.679	0.0282511
711.814	0.0292533
711.949	0.0282511
712.084	0.0286896
712.219	0.028439
712.353	0.0288148
712.488	0.0286896
712.623	0.0290654
712.758	0.0286896
712.892	0.0282511
713.027	0.0294412
713.162	0.0283137
713.297	0.0285016
713.432	0.0273741
713.566	0.0283137
713.701	0.0285643
713.836	0.0277499
713.971	0.0285016
714.105	0.0277499
714.24	0.0288148
714.375	0.0289401
714.51	0.0290654
714.645	0.0279379
714.779	0.0279379
714.914	0.0288775
715.049	0.0276247
715.184	0.0281884
715.318	0.0285016
715.453	0.0278126
715.588	0.0283137
715.723	0.0286269
715.858	0.0283763
715.992	0.0280005
716.127	0.0286896
716.262	0.0286896
716.397	0.029316
716.531	0.0285643
716.666	0.0289401
716.801	0.0286269
716.936	0.0289401
717.07	0.0289401
717.205	0.0288148
717.34	0.0287522
717.475	0.0286269
717.61	0.0288775
717.744	0.0286896
717.879	0.0293786
718.014	0.0285016
718.149	0.0294412
718.283	0.0288775
718.418	0.0290028
718.553	0.0283137
718.688	0.0276873
718.822	0.0283763
718.957	0.0285016
719.092	0.0294412
719.227	0.028439
719.361	0.0288148
719.496	0.0281884
719.631	0.0278752
719.766	0.0279379
719.9	0.0288775
720.035	0.0280005
720.17	0.0274994
720.305	0.0285016
720.44	0.027562
720.574	0.0290028
720.709	0.0283763
720.844	0.0281884
720.979	0.0285016
721.113	0.0288148
721.248	0.0282511
721.383	0.0287522
721.518	0.028439
721.652	0.0292533
721.787	0.0294412
721.922	0.0281884
722.057	0.0287522
722.191	0.0283763
722.326	0.0281258
722.461	0.0288148
722.596	0.0278752
722.73	0.0280005
722.865	0.0289401
723	0.0285016
723.135	0.029316
723.269	0.0283763
723.404	0.0285643
723.539	0.0288148
723.674	0.0287522
723.808	0.0288148
723.943	0.029316
724.078	0.0278752
724.213	0.0293786
724.347	0.0283763
724.482	0.0281884
724.617	0.0280005
724.752	0.0287522
724.886	0.029316
725.021	0.0289401
725.156	0.0290028
725.291	0.0278126
725.425	0.0281884
725.56	0.028439
725.695	0.0281258
725.829	0.029128
725.964	0.0290028
726.099	0.0285016
726.234	0.0290654
726.368	0.0286896
726.503	0.0297544
726.638	0.0289401
726.773	0.0282511
726.907	0.0280005
727.042	0.0280005
727.177	0.0279379
727.312	0.0286896
727.446	0.0280005
727.581	0.0280005
727.716	0.0283137
727.851	0.029128
727.985	0.0294412
728.12	0.0285643
728.255	0.0286269
728.389	0.0282511
728.524	0.028439
728.659	0.0283763
728.794	0.0287522
728.928	0.0279379
729.063	0.0288775
729.198	0.0288775
729.333	0.0286269
729.467	0.0283763
729.602	0.0276873
729.737	0.0295665
729.872	0.0282511
730.006	0.0283763
730.141	0.0286896
730.276	0.0288148
730.41	0.0290028
730.545	0.0281884
730.68	0.0282511
730.815	0.0285643
730.949	0.0281884
731.084	0.0287522
731.219	0.0290028
731.354	0.0288148
731.488	0.0286269
731.623	0.0289401
731.758	0.0288775
731.892	0.0280005
732.027	0.0287522
732.162	0.0289401
732.297	0.028439
732.431	0.0274367
732.566	0.029316
732.701	0.0285016
732.835	0.0288775
732.97	0.0281884
733.105	0.0286896
733.24	0.0281258
733.374	0.0286269
733.509	0.0286269
733.644	0.0291907
733.779	0.0283763
733.913	0.0281884
734.048	0.0276873
734.183	0.0281884
734.317	0.0276873
734.452	0.029128
734.587	0.0283763
734.722	0.0283137
734.856	0.0280631
734.991	0.0286269
735.126	0.0274994
735.26	0.028439
735.395	0.0282511
735.53	0.0282511
735.665	0.0277499
735.799	0.028439
735.934	0.0283137
736.069	0.0276873
736.203	0.027562
736.338	0.0278126
736.473	0.0289401
736.607	0.0285016
736.742	0.0290028
736.877	0.0286896
737.012	0.0289401
737.146	0.028439
737.281	0.0288775
737.416	0.0283763
737.55	0.028439
737.685	0.0282511
737.82	0.0277499
737.955	0.0279379
738.089	0.0286269
738.224	0.028439
738.359	0.0297544
738.493	0.028439
738.628	0.0296292
738.763	0.0285016
738.897	0.0283137
739.032	0.027562
739.167	0.0285643
739.302	0.028439
739.436	0.0291907
739.571	0.0280005
739.706	0.0285643
739.84	0.0283137
739.975	0.0285643
740.11	0.0279379
740.244	0.0283763
740.379	0.0281258
740.514	0.0289401
740.649	0.0287522
740.783	0.0286269
740.918	0.0286896
741.053	0.0280005
741.187	0.0286269
741.322	0.028439
741.457	0.0283137
741.591	0.028439
741.726	0.0277499
741.861	0.0283763
741.996	0.0280631
742.13	0.0280631
742.265	0.0281258
742.4	0.0283137
742.534	0.0287522
742.669	0.0286896
742.804	0.0278752
742.938	0.029128
743.073	0.0288775
743.208	0.0290654
743.342	0.0293786
743.477	0.0278752
743.612	0.027562
743.747	0.0276247
743.881	0.0287522
744.016	0.0276873
744.151	0.0283137
744.285	0.0293786
744.42	0.0282511
744.555	0.0288775
744.689	0.0283763
744.824	0.0279379
744.959	0.0286896
745.093	0.0288148
745.228	0.0289401
745.363	0.0287522
745.497	0.0292533
745.632	0.0286896
745.767	0.028439
745.901	0.0288148
746.036	0.0286269
746.171	0.0283763
746.305	0.0285643
746.44	0.0278752
746.575	0.0285016
746.71	0.0286896
746.844	0.0285643
746.979	0.0276247
747.114	0.0285016
747.248	0.0276873
747.383	0.0274994
747.518	0.0286896
747.652	0.0297544
747.787	0.0283763
747.922	0.0281884
748.056	0.0285016
748.191	0.0285643
748.326	0.0282511
748.46	0.0279379
748.595	0.0277499
748.73	0.0276873
748.864	0.0294412
748.999	0.0286896
749.134	0.0287522
749.268	0.0283137
749.403	0.0276873
749.538	0.0280005
749.672	0.0281884
749.807	0.0281884
749.942	0.0287522
750.076	0.0286269
750.211	0.0289401
750.346	0.0283137
750.48	0.0294412
750.615	0.0291907
750.75	0.0288148
750.884	0.0286269
751.019	0.0291907
751.154	0.0283763
751.288	0.0292533
751.423	0.0283137
751.558	0.0286896
751.692	0.0285643
751.827	0.028439
751.962	0.0288148
752.096	0.0278752
752.231	0.0277499
752.366	0.0276247
752.5	0.0273741
752.635	0.0289401
752.77	0.0288148
752.904	0.0288148
753.039	0.0285643
753.174	0.0286896
753.308	0.0285643
753.443	0.0276247
753.578	0.0276873
753.712	0.0283137
753.847	0.0283763
753.982	0.0280005
754.116	0.0285643
754.251	0.0278752
754.386	0.0283137
754.52	0.0280005
754.655	0.0288148
754.79	0.028439
754.924	0.0281258
755.059	0.0288775
755.194	0.0273115
755.328	0.0289401
755.463	0.0291907
755.597	0.0283137
755.732	0.0292533
755.867	0.0281258
756.001	0.0292533
756.136	0.0281258
756.271	0.0283137
756.405	0.0281258
756.54	0.0289401
756.675	0.0282511
756.809	0.0294412
756.944	0.0277499
757.079	0.0278126
757.213	0.0289401
757.348	0.0285016
757.483	0.0288775
757.617	0.0288148
757.752	0.0286896
757.887	0.0280005
758.021	0.0278752
758.156	0.029128
758.29	0.0281258
758.425	0.0287522
758.56	0.0280005
758.694	0.0277499
758.829	0.0281884
758.964	0.0292533
759.098	0.0286269
759.233	0.0288775
759.368	0.0286896
759.502	0.0287522
759.637	0.0295665
759.772	0.028439
759.906	0.029128
760.041	0.0290028
760.175	0.0296292
760.31	0.0283137
760.445	0.0277499
760.579	0.0281884
760.714	0.0283763
760.849	0.0286269
760.983	0.0283137
761.118	0.028439
761.253	0.0283137
761.387	0.0283137
761.522	0.0288775
761.656	0.0289401
761.791	0.0278126
761.926	0.0280005
762.06	0.0282511
762.195	0.0286269
762.33	0.0290028
762.464	0.0286269
762.599	0.0281884
762.733	0.0288148
762.868	0.0286269
763.003	0.0277499
763.137	0.027562
763.272	0.0290028
763.407	0.0283137
763.541	0.0287522
763.676	0.0285016
763.811	0.0283137
763.945	0.028439
764.08	0.0292533
764.214	0.028439
764.349	0.0281884
764.484	0.0283137
764.618	0.0281884
764.753	0.0289401
764.888	0.0283137
765.022	0.0283763
765.157	0.0286269
765.291	0.0288775
765.426	0.0285643
765.561	0.0289401
765.695	0.0285643
765.83	0.0281258
765.965	0.0276873
766.099	0.0288148
766.234	0.0286269
766.368	0.0295039
766.503	0.029316
766.638	0.0286269
766.772	0.0281884
766.907	0.029128
767.041	0.0287522
767.176	0.0274994
767.311	0.0281258
767.445	0.0277499
767.58	0.0279379
767.715	0.0279379
767.849	0.0285016
767.984	0.0287522
768.118	0.0286896
768.253	0.028439
768.388	0.028439
768.522	0.0290028
768.657	0.028439
768.791	0.0283763
768.926	0.0291907
769.061	0.0295039
769.195	0.0280005
769.33	0.027562
769.465	0.0286269
769.599	0.029128
769.734	0.0283763
769.868	0.0280005
770.003	0.0283137
770.138	0.0288148
770.272	0.0296918
770.407	0.0280005
770.541	0.0280631
770.676	0.0274994
770.811	0.0290028
770.945	0.0283763
771.08	0.0285016
771.214	0.0282511
771.349	0.0285643
771.484	0.0288775
771.618	0.0288148
771.753	0.0279379
771.887	0.0286896
772.022	0.0281258
772.157	0.0277499
772.291	0.0287522
772.426	0.0281884
772.56	0.0286896
772.695	0.029316
772.83	0.0290654
772.964	0.0283763
773.099	0.0282511
773.233	0.0282511
773.368	0.0278752
773.503	0.0281258
773.637	0.0286896
773.772	0.028439
773.906	0.0294412
774.041	0.0280631
774.176	0.0279379
774.31	0.0293786
774.445	0.0290028
774.579	0.0294412
774.714	0.0286269
774.849	0.028439
774.983	0.0285643
775.118	0.0281884
775.252	0.0290028
775.387	0.0285643
775.522	0.0283763
775.656	0.0282511
775.791	0.0286269
775.925	0.0286269
776.06	0.0300677
776.195	0.0278752
776.329	0.0286896
776.464	0.0289401
776.598	0.0283763
776.733	0.028439
776.868	0.0286896
777.002	0.0289401
777.137	0.029316
777.271	0.0286269
777.406	0.0288148
777.54	0.0281258
777.675	0.0277499
777.81	0.0288148
777.944	0.0285016
778.079	0.0285016
778.213	0.0281884
778.348	0.0283137
778.483	0.0282511
778.617	0.0285016
778.752	0.0285643
778.886	0.027562
779.021	0.0286269
779.155	0.0289401
779.29	0.0285016
779.425	0.0295665
779.559	0.0273741
779.694	0.0290028
779.828	0.0291907
779.963	0.0294412
780.098	0.028439
780.232	0.0291907
780.367	0.0283763
780.501	0.0285016
780.636	0.0290028
780.77	0.0283763
780.905	0.0281258
781.04	0.0287522
781.174	0.0283137
781.309	0.0286269
781.443	0.0288148
781.578	0.0283137
781.712	0.0287522
781.847	0.0285016
781.982	0.0285643
782.116	0.0277499
782.251	0.0286269
782.385	0.028439
782.52	0.0288148
782.654	0.0289401
782.789	0.0285643
782.924	0.0296918
783.058	0.0278752
783.193	0.0282511
783.327	0.0291907
783.462	0.0283137
783.596	0.0288775
783.731	0.0280631
783.866	0.0286896
784	0.0283137
784.135	0.0288148
784.269	0.029316
784.404	0.0283763
784.538	0.0285016
784.673	0.0280005
784.808	0.0294412
784.942	0.0288148
785.077	0.0292533
785.211	0.0283763
785.346	0.0286896
785.48	0.0282511
785.615	0.0295039
785.75	0.0279379
785.884	0.0285643
786.019	0.0285016
786.153	0.0282511
786.288	0.0288775
786.422	0.0281884
786.557	0.0279379
786.691	0.0290028
786.826	0.0286269
786.961	0.029316
787.095	0.0288148
787.23	0.0281884
787.364	0.029316
787.499	0.0283763
787.633	0.029128
787.768	0.0286269
787.902	0.0280005
788.037	0.0280005
788.172	0.0278752
788.306	0.0285016
788.441	0.0286269
788.575	0.0288148
788.71	0.0277499
788.844	0.0283137
788.979	0.0290028
789.113	0.0286896
789.248	0.0280631
789.383	0.0285643
789.517	0.0283137
789.652	0.0283137
789.786	0.0274994
789.921	0.0289401
790.055	0.0288775
790.19	0.0287522
790.324	0.0282511
790.459	0.0283763
790.594	0.0286269
790.728	0.0288148
790.863	0.0280631
790.997	0.0283763
791.132	0.0274994
791.266	0.0277499
791.401	0.0286269
791.535	0.0280631
791.67	0.0286896
791.804	0.0281258
791.939	0.0288775
792.074	0.0288775
792.208	0.0288148
792.343	0.0290654
792.477	0.0278752
792.612	0.027562
792.746	0.0278126
792.881	0.0283137
793.015	0.0281258
793.15	0.0281884
793.284	0.0286896
793.419	0.0283137
793.553	0.029316
793.688	0.0286896
793.823	0.0294412
793.957	0.0286269
794.092	0.0282511
794.226	0.0289401
794.361	0.0286269
794.495	0.0287522
794.63	0.0285643
794.764	0.028439
794.899	0.0285016
795.033	0.0283137
795.168	0.0286269
795.302	0.0276873
795.437	0.0276873
795.572	0.0294412
795.706	0.0285643
795.841	0.0288775
795.975	0.0285016
796.11	0.0279379
796.244	0.0279379
796.379	0.0281258
796.513	0.0286269
796.648	0.0283137
796.782	0.0282511
796.917	0.028439
797.051	0.0283763
797.186	0.0281884
797.32	0.0295665
797.455	0.0281258
797.589	0.0288148
797.724	0.0286896
797.859	0.0290654
797.993	0.0283137
798.128	0.0292533
798.262	0.0283137
798.397	0.0285643
798.531	0.0285643
798.666	0.028439
798.8	0.0294412
798.935	0.0285016
799.069	0.0288148
799.204	0.0278126
799.338	0.0276873
799.473	0.0288775
799.607	0.028439
799.742	0.0280631
799.876	0.029128
800.011	0.0288775
800.145	0.0293786
800.28	0.0281258
800.414	0.0281258
800.549	0.0290028
800.683	0.0290654
800.818	0.0288148
800.953	0.0282511
801.087	0.0279379
801.222	0.0286896
801.356	0.0293786
801.491	0.0287522
801.625	0.0288148
801.76	0.0293786
801.894	0.0283763
802.029	0.0286896
802.163	0.0286269
802.298	0.030005
802.432	0.0285643
802.567	0.0289401
802.701	0.0280005
802.836	0.0290654
802.97	0.0279379
803.105	0.0287522
803.239	0.0287522
803.374	0.0295039
803.508	0.0289401
803.643	0.029316
803.777	0.0290028
803.912	0.0290028
804.046	0.0292533
804.181	0.029128
804.315	0.0288148
804.45	0.0292533
804.584	0.0291907
804.719	0.029128
804.853	0.0283137
804.988	0.0300677
805.122	0.0292533
805.257	0.0288148
805.391	0.0286896
805.526	0.0287522
805.66	0.0283763
805.795	0.0295039
805.929	0.0291907
806.064	0.0290028
806.198	0.0285016
806.333	0.0297544
806.467	0.029316
806.602	0.0307567
806.736	0.0292533
806.871	0.0306314
807.005	0.028439
807.14	0.030005
807.274	0.0300677
807.409	0.0296918
807.543	0.0297544
807.678	0.0302556
807.812	0.0296918
807.947	0.0301303
808.081	0.0288775
808.216	0.0301929
808.35	0.0303809
808.485	0.0293786
808.619	0.0304435
808.754	0.0303182
808.888	0.0296292
809.023	0.0311952
809.157	0.0301929
809.292	0.0302556
809.426	0.0313205
809.561	0.0302556
809.695	0.0304435
809.83	0.031759
809.964	0.0313831
810.099	0.0314458
810.233	0.0314458
810.368	0.0314458
810.502	0.0320095
810.637	0.0331371
810.771	0.0331997
810.906	0.033325
811.04	0.0330744
811.175	0.0336382
811.309	0.0331997
811.444	0.0345152
811.578	0.034891
811.713	0.0354548
811.847	0.0355174
811.982	0.036457
812.116	0.0362691
812.251	0.0375219
812.385	0.039777
812.519	0.0419068
812.654	0.0494237
812.788	0.0557504
812.923	0.051992
813.057	0.0524305
813.192	0.0672137
813.326	0.0686545
813.461	0.0791155
813.595	0.111
813.73	0.116637
813.864	0.200639
813.999	0.465861
814.133	0.741168
814.268	0.936795
814.402	0.980519
814.537	0.985029
814.671	0.975507
814.806	0.951704
814.94	0.844588
815.075	1.02625
815.209	1
815.344	1.02625
815.478	0.980644
815.612	1.02311
815.747	0.831371
815.881	1.01735
816.016	1.01115
816.15	1.00752
816.285	1.00031
816.419	0.988725
816.554	0.981897
816.688	0.49242
816.823	0.092646
816.957	0.0548108
817.092	0.0469807
817.226	0.0471686
817.361	0.0491105
817.495	0.0414683
817.63	0.0382736
817.764	0.0361438
817.898	0.0360812
818.033	0.0362691
818.167	0.0340767
818.302	0.0350163
818.436	0.0338261
818.571	0.0341393
818.705	0.0329491
818.84	0.0330744
818.974	0.0321348
819.109	0.0313831
819.243	0.0313205
819.378	0.0312578
819.512	0.0320095
819.646	0.0303182
819.781	0.0311952
819.915	0.0320722
820.05	0.0312578
820.184	0.030882
820.319	0.0306941
820.453	0.0298171
820.588	0.0300677
820.722	0.0296918
820.857	0.0295665
820.991	0.0299424
821.126	0.0299424
821.26	0.0299424
821.394	0.0302556
821.529	0.0300677
821.663	0.029128
821.798	0.0285643
821.932	0.0301929
822.067	0.0297544
822.201	0.0300677
822.336	0.0303809
822.47	0.0299424
822.605	0.0282511
822.739	0.0296918
822.873	0.0290654
823.008	0.0296292
823.142	0.0295039
823.277	0.0281884
823.411	0.0296292
823.546	0.0291907
823.68	0.0288148
823.815	0.0301929
823.949	0.0289401
824.083	0.029128
824.218	0.0287522
824.352	0.0295039
824.487	0.0294412
824.621	0.0286896
824.756	0.0287522
824.89	0.029316
825.025	0.0296292
825.159	0.0290028
825.293	0.0285643
825.428	0.028439
825.562	0.0286896
825.697	0.0286896
825.831	0.0283763
825.966	0.0288148
826.1	0.0282511
826.235	0.0296918
826.369	0.0286896
826.503	0.0289401
826.638	0.0294412
826.772	0.0287522
826.907	0.0286269
827.041	0.0295039
827.176	0.0288148
827.31	0.0288775
827.445	0.0288148
827.579	0.0285016
827.713	0.028439
827.848	0.028439
827.982	0.0281258
828.117	0.0285016
828.251	0.0291907
828.386	0.0287522
828.52	0.0288775
828.654	0.0281258
828.789	0.0288775
828.923	0.0281884
829.058	0.029316
829.192	0.0280631
829.327	0.029316
829.461	0.0280631
829.596	0.028439
829.73	0.0283137
829.864	0.0293786
829.999	0.0287522
830.133	0.0285016
830.268	0.0281884
830.402	0.0283763
830.537	0.028439
830.671	0.0285016
830.805	0.0276873
830.94	0.0279379
831.074	0.0282511
831.209	0.0282511
831.343	0.0292533
831.478	0.0285643
831.612	0.0286896
831.746	0.0290028
831.881	0.0282511
832.015	0.0288148
832.15	0.0289401
832.284	0.0286269
832.418	0.0287522
832.553	0.0282511
832.687	0.0286896
832.822	0.0283763
832.956	0.0289401
833.091	0.0282511
833.225	0.0285643
833.359	0.0288148
833.494	0.0280631
833.628	0.0296292
833.763	0.0278752
833.897	0.0288148
834.032	0.0282511
834.166	0.0288148
834.3	0.0285643
834.435	0.0289401
834.569	0.0276873
834.704	0.0278126
834.838	0.0283137
834.972	0.0292533
835.107	0.0286896
835.241	0.0286269
835.376	0.0286269
835.51	0.0280631
835.645	0.0277499
835.779	0.0282511
835.913	0.0281884
836.048	0.0277499
836.182	0.0278752
836.317	0.028439
836.451	0.0285643
836.585	0.0285016
836.72	0.0289401
836.854	0.0294412
836.989	0.0290654
837.123	0.0280005
837.257	0.0283763
837.392	0.0285643
837.526	0.0287522
837.661	0.0280005
837.795	0.0290654
837.929	0.029128
838.064	0.0287522
838.198	0.0286896
838.333	0.0290028
838.467	0.0283763
838.602	0.0283763
838.736	0.0289401
838.87	0.0289401
839.005	0.0281884
839.139	0.0285643
839.274	0.0280631
839.408	0.0288148
839.542	0.028439
839.677	0.0281258
839.811	0.0287522
839.946	0.0288148
840.08	0.0294412
840.214	0.0274994
840.349	0.0280005
840.483	0.0288148
840.618	0.0285643
840.752	0.0290028
840.886	0.0282511
841.021	0.0289401
841.155	0.028439
841.29	0.0278752
841.424	0.0285643
841.558	0.0285016
841.693	0.0278752
841.827	0.0286269
841.961	0.0281884
842.096	0.0283763
842.23	0.0273741
842.365	0.0289401
842.499	0.0283763
842.633	0.0288775
842.768	0.0280005
842.902	0.0286269
843.037	0.0279379
843.171	0.0282511
843.305	0.028439
843.44	0.0289401
843.574	0.0285643
843.709	0.0285016
843.843	0.0290028
843.977	0.028439
844.112	0.0281258
844.246	0.0278752
844.381	0.0283763
844.515	0.0280005
844.649	0.0280005
844.784	0.0287522
844.918	0.0290028
845.052	0.0290654
845.187	0.0286269
845.321	0.0295665
845.456	0.0286896
845.59	0.0282511
845.724	0.0282511
845.859	0.0282511
845.993	0.028439
846.128	0.028439
846.262	0.0286269
846.396	0.0285016
846.531	0.0282511
846.665	0.0289401
846.799	0.0283137
846.934	0.0286896
847.068	0.0281884
847.203	0.0279379
847.337	0.0295039
847.471	0.0283137
847.606	0.0295039
847.74	0.0280631
847.874	0.0283137
848.009	0.0280631
848.143	0.0285016
848.278	0.0286896
848.412	0.0287522
848.546	0.028439
848.681	0.0285643
848.815	0.0287522
848.949	0.0290654
849.084	0.0276247
849.218	0.0288775
849.353	0.0283137
849.487	0.028439
849.621	0.0286269
849.756	0.0280005
849.89	0.028439
850.024	0.0276873
850.159	0.0273741
850.293	0.0285016
850.428	0.0276247
850.562	0.028439
850.696	0.0290654
850.831	0.0280631
850.965	0.0285643
851.099	0.0292533
851.234	0.029316
851.368	0.0286269
851.502	0.0288148
851.637	0.029128
851.771	0.0283763
851.906	0.0289401
852.04	0.0288148
852.174	0.029316
852.309	0.0294412
852.443	0.0283137
852.577	0.0277499
852.712	0.0280005
852.846	0.029128
852.98	0.0282511
853.115	0.0295039
853.249	0.0289401
853.384	0.0287522
853.518	0.0281258
853.652	0.0292533
853.787	0.0278752
853.921	0.0291907
854.055	0.0285643
854.19	0.0279379
854.324	0.0280005
854.458	0.0288775
854.593	0.0288775
854.727	0.0274994
854.861	0.0281258
854.996	0.0282511
855.13	0.0289401
855.265	0.0282511
855.399	0.0285643
855.533	0.0285643
855.668	0.0293786
855.802	0.0288148
855.936	0.0290028
856.071	0.0280005
856.205	0.0286269
856.339	0.0290654
856.474	0.0279379
856.608	0.0287522
856.742	0.0276247
856.877	0.0283763
857.011	0.0290028
857.145	0.0289401
857.28	0.0286269
857.414	0.029316
857.549	0.0289401
857.683	0.0280631
857.817	0.0282511
857.952	0.0288775
858.086	0.0288148
858.22	0.0281258
858.355	0.0291907
858.489	0.0289401
858.623	0.0273115
858.758	0.0292533
858.892	0.0283763
859.026	0.0286896
859.161	0.028439
859.295	0.0290028
859.429	0.0278752
859.564	0.0283763
859.698	0.0274994
859.832	0.0288775
859.967	0.0290654
860.101	0.0286896
860.235	0.0281884
860.37	0.0281884
860.504	0.0286269
860.638	0.0281884
860.773	0.0293786
860.907	0.0287522
861.041	0.028439
861.176	0.0281258
861.31	0.0285643
861.444	0.029316
861.579	0.0288148
861.713	0.0287522
861.847	0.028439
861.982	0.0274367
862.116	0.0285643
862.25	0.0283763
862.385	0.0283763
862.519	0.0286896
862.653	0.0289401
862.788	0.0281884
862.922	0.0286269
863.056	0.0283137
863.191	0.0283763
863.325	0.029316
863.459	0.0289401
863.594	0.0283763
863.728	0.0283137
863.862	0.028439
863.997	0.0278126
864.131	0.0280005
864.265	0.0277499
864.4	0.0282511
864.534	0.0288148
864.668	0.028439
864.803	0.0281258
864.937	0.0278126
865.071	0.0281258
865.206	0.0286896
865.34	0.0283763
865.474	0.0283137
865.609	0.028439
865.743	0.028439
865.877	0.0290654
866.012	0.028439
866.146	0.0288775
866.28	0.0288148
866.415	0.0280005
866.549	0.0288148
866.683	0.0281258
866.818	0.0291907
866.952	0.0283763
867.086	0.0283137
867.221	0.0286269
867.355	0.0281258
867.489	0.0286896
867.623	0.0280005
867.758	0.0285016
867.892	0.0283763
868.026	0.028439
868.161	0.0285016
868.295	0.0288148
868.429	0.028439
868.564	0.0278126
868.698	0.028439
868.832	0.0276247
868.967	0.0290028
869.101	0.0280631
869.235	0.0288148
869.37	0.0279379
869.504	0.029128
869.638	0.0292533
869.773	0.0281884
869.907	0.0280005
870.041	0.0286269
870.175	0.028439
870.31	0.0294412
870.444	0.0271235
870.578	0.0277499
870.713	0.0291907
870.847	0.0281258
870.981	0.0285016
871.116	0.0291907
871.25	0.0278126
871.384	0.0288775
871.519	0.0295039
871.653	0.0293786
871.787	0.0289401
871.921	0.0287522
872.056	0.0287522
872.19	0.0280005
872.324	0.0292533
872.459	0.0281258
872.593	0.0287522
872.727	0.0288775
872.862	0.028439
872.996	0.0286269
873.13	0.0289401
873.264	0.0287522
873.399	0.0283763
873.533	0.028439
873.667	0.0281884
873.802	0.0286896
873.936	0.0285643
874.07	0.0287522
874.205	0.0281258
874.339	0.0288775
874.473	0.0281258
874.607	0.0289401
874.742	0.0287522
874.876	0.0287522
875.01	0.0280005
875.145	0.029128
875.279	0.0285643
875.413	0.029128
875.548	0.0285643
875.682	0.0281884
875.816	0.028439
875.95	0.0281258
876.085	0.0279379
876.219	0.0289401
876.353	0.0289401
876.488	0.0290028
876.622	0.0281258
876.756	0.0292533
876.89	0.0289401
877.025	0.0286269
877.159	0.0285643
877.293	0.0285643
877.428	0.0283763
877.562	0.0277499
877.696	0.0280631
877.83	0.0285016
877.965	0.0283763
878.099	0.0283137
878.233	0.0290654
878.368	0.0286896
878.502	0.0283137
878.636	0.0287522
878.77	0.028439
878.905	0.0283137
879.039	0.0282511
879.173	0.0280631
879.308	0.0294412
879.442	0.0288775
879.576	0.0280631
879.71	0.028439
879.845	0.0287522
879.979	0.0280631
880.113	0.0280005
880.248	0.0286269
880.382	0.0279379
880.516	0.0280631
880.65	0.0283763
880.785	0.027562
880.919	0.0283137
881.053	0.0288775
881.188	0.0283137
881.322	0.0288148
881.456	0.0286269
881.59	0.028439
881.725	0.0278752
881.859	0.0277499
881.993	0.0290028
882.127	0.0286269
882.262	0.0285643
882.396	0.0281258
882.53	0.0290654
882.665	0.0280005
882.799	0.0289401
882.933	0.0281884
883.067	0.0280005
883.202	0.0281258
883.336	0.0286269
883.47	0.0283137
883.604	0.0286896
883.739	0.0285016
883.873	0.0289401
884.007	0.0282511
884.142	0.0295665
884.276	0.0282511
884.41	0.0283763
884.544	0.0283137
884.679	0.0283763
884.813	0.0290654
884.947	0.0278126
885.081	0.0273741
885.216	0.0287522
885.35	0.0285016
885.484	0.0277499
885.618	0.0282511
885.753	0.0281884
885.887	0.0289401
886.021	0.0283137
886.155	0.0285016
886.29	0.0289401
886.424	0.0286896
886.558	0.0291907
886.693	0.028439
886.827	0.0282511
886.961	0.0290654
887.095	0.0289401
887.23	0.0282511
887.364	0.0288775
887.498	0.0285016
887.632	0.028439
887.767	0.0280631
887.901	0.0286269
888.035	0.0286269
888.169	0.0281258
888.304	0.0280631
888.438	0.0283763
888.572	0.0280631
888.706	0.0283137
888.841	0.0285643
888.975	0.029316
889.109	0.0283137
889.243	0.0287522
889.378	0.0285643
889.512	0.0292533
889.646	0.0289401
889.78	0.0280005
889.915	0.0279379
890.049	0.0290028
890.183	0.0286269
890.317	0.0282511
890.452	0.0283763
890.586	0.0283137
890.72	0.0287522
890.854	0.0278752
890.989	0.0288775
891.123	0.0280005
891.257	0.0283763
891.391	0.0288148
891.526	0.0281884
891.66	0.028439
891.794	0.0285016
891.928	0.0289401
892.063	0.0281884
892.197	0.0290654
892.331	0.0281258
892.465	0.0282511
892.6	0.0296918
892.734	0.0288148
892.868	0.0295039
893.002	0.0290654
893.137	0.0282511
893.271	0.0283763
893.405	0.0281884
893.539	0.0280631
893.674	0.0283137
893.808	0.0291907
893.942	0.0283763
894.076	0.0285643
894.21	0.0291907
894.345	0.0283137
894.479	0.0291907
894.613	0.0286896
894.747	0.0282511
894.882	0.0295665
895.016	0.029128
895.15	0.0295039
895.284	0.0282511
895.419	0.0280631
895.553	0.0285016
895.687	0.0290028
895.821	0.0290654
895.956	0.0285016
896.09	0.0285643
896.224	0.0285016
896.358	0.0282511
896.492	0.0285016
896.627	0.0290028
896.761	0.028439
896.895	0.0293786
897.029	0.0283137
897.164	0.0288148
897.298	0.027562
897.432	0.0286269
897.566	0.0286269
897.701	0.0282511
897.835	0.0279379
897.969	0.0280631
898.103	0.0283763
898.237	0.0280005
898.372	0.0285016
898.506	0.0283137
898.64	0.0288148
898.774	0.0281884
898.909	0.0277499
899.043	0.0291907
899.177	0.0279379
899.311	0.0280631
899.445	0.0293786
899.58	0.0283137
899.714	0.0295039
899.848	0.0291907
899.982	0.0283137
900.117	0.0286896
900.251	0.0280631
900.385	0.029128
900.519	0.0283137
900.653	0.0296918
900.788	0.0283137
900.922	0.028439
901.056	0.0274367
901.19	0.0290654
901.325	0.0295665
901.459	0.0283763
901.593	0.0283137
901.727	0.0278126
901.861	0.0280631
901.996	0.0274994
902.13	0.0287522
902.264	0.0288148
902.398	0.0283763
902.532	0.0293786
902.667	0.0280631
902.801	0.0281258
902.935	0.0280631
903.069	0.0279379
903.204	0.028439
903.338	0.0280005
903.472	0.0281884
903.606	0.0285016
903.74	0.0286896
903.875	0.0283763
904.009	0.0293786
904.143	0.0289401
904.277	0.0280005
904.411	0.0286269
904.546	0.0290028
904.68	0.0280631
904.814	0.0289401
904.948	0.0288148
905.082	0.028439
905.217	0.0292533
905.351	0.0281258
905.485	0.0283137
905.619	0.0271235
905.753	0.0286896
905.888	0.0291907
906.022	0.0287522
906.156	0.0285016
906.29	0.0290654
906.424	0.0291907
906.559	0.028439
906.693	0.0304435
906.827	0.028439
906.961	0.0289401
907.095	0.0286896
907.23	0.0276247
907.364	0.0286269
907.498	0.0285016
907.632	0.0277499
907.766	0.0290028
907.901	0.0290028
908.035	0.0273115
908.169	0.0285643
908.303	0.0283137
908.437	0.0286896
908.572	0.029316
908.706	0.0283137
908.84	0.0288775
908.974	0.0291907
909.108	0.0282511
909.243	0.028439
909.377	0.0294412
909.511	0.0281884
909.645	0.0273741
909.779	0.0282511
909.914	0.0278752
910.048	0.0283763
910.182	0.0287522
910.316	0.0288775
910.45	0.028439
910.585	0.0277499
910.719	0.0291907
910.853	0.0276873
910.987	0.0282511
911.121	0.0286269
911.255	0.0282511
911.39	0.0285016
911.524	0.0290654
911.658	0.0283137
911.792	0.0283763
911.926	0.0286896
912.061	0.0286896
912.195	0.0291907
912.329	0.028439
912.463	0.0282511
912.597	0.0281884
912.732	0.028439
912.866	0.0286269
913	0.0280631
913.134	0.0281884
913.268	0.0281884
913.402	0.0283137
913.537	0.0283137
913.671	0.0279379
913.805	0.028439
913.939	0.0285643
914.073	0.0293786
914.208	0.0283763
914.342	0.0294412
914.476	0.0283137
914.61	0.0293786
914.744	0.028439
914.878	0.0288148
915.013	0.0280005
915.147	0.028439
915.281	0.0281258
915.415	0.029128
915.549	0.0288775
915.683	0.0290654
915.818	0.0277499
915.952	0.0286896
916.086	0.0279379
916.22	0.0276873
916.354	0.0287522
916.488	0.0285643
916.623	0.0278126
916.757	0.0281884
916.891	0.027562
917.025	0.029128
917.159	0.028439
917.293	0.028439
917.428	0.0287522
917.562	0.0289401
917.696	0.0276873
917.83	0.0285643
917.964	0.0280631
918.098	0.0282511
918.233	0.0278752
918.367	0.0288775
918.501	0.028439
918.635	0.0288775
918.769	0.0279379
918.903	0.0279379
919.038	0.0283137
919.172	0.0282511
919.306	0.0283137
919.44	0.029128
919.574	0.0287522
919.708	0.0285643
919.843	0.0281884
919.977	0.0278126
920.111	0.0289401
920.245	0.0283137
920.379	0.0281258
920.513	0.0278126
920.648	0.0288775
920.782	0.0281884
920.916	0.0274367
921.05	0.0288148
921.184	0.0274994
921.318	0.0290028
921.453	0.0286896
921.587	0.0294412
921.721	0.0285643
921.855	0.0283763
921.989	0.0278752
922.123	0.0289401
922.257	0.029128
922.392	0.0281884
922.526	0.0288148
922.66	0.0285016
922.794	0.0297544
922.928	0.0281258
923.062	0.0278126
923.197	0.0287522
923.331	0.028439
923.465	0.0288148
923.599	0.0278126
923.733	0.0285016
923.867	0.0283763
924.001	0.0283763
924.136	0.0288148
924.27	0.0290654
924.404	0.0292533
924.538	0.0288775
924.672	0.0281884
924.806	0.0282511
924.94	0.028439
925.075	0.0278752
925.209	0.0290028
925.343	0.0288148
925.477	0.0286896
925.611	0.0282511
925.745	0.0286896
925.879	0.0285643
926.014	0.028439
926.148	0.0283137
926.282	0.028439
926.416	0.0286896
926.55	0.0278752
926.684	0.0294412
926.818	0.0281884
926.953	0.0276247
927.087	0.0290654
927.221	0.0280631
927.355	0.0281258
927.489	0.0290028
927.623	0.0281258
927.757	0.028439
927.892	0.0274994
928.026	0.0280631
928.16	0.0281258
928.294	0.0291907
928.428	0.0286269
928.562	0.028439
928.696	0.0281258
928.831	0.0283763
928.965	0.028439
929.099	0.0285643
929.233	0.0282511
929.367	0.0290028
929.501	0.0276873
929.635	0.0281258
929.769	0.0286269
929.904	0.029128
930.038	0.028439
930.172	0.0289401
930.306	0.0288775
930.44	0.0295665
930.574	0.0290028
930.708	0.0281884
930.843	0.0283763
930.977	0.029128
931.111	0.0288148
931.245	0.0283763
931.379	0.0278126
931.513	0.0286269
931.647	0.0285643
931.781	0.0289401
931.916	0.0287522
932.05	0.0283137
932.184	0.0288148
932.318	0.0286269
932.452	0.0279379
932.586	0.0283763
932.72	0.0281884
932.854	0.0281884
932.989	0.0281258
933.123	0.0285643
933.257	0.0286269
933.391	0.0285016
933.525	0.0288148
933.659	0.0286896
933.793	0.0290028
933.927	0.0285643
934.061	0.0285643
934.196	0.0286896
934.33	0.0283137
934.464	0.0285016
934.598	0.0278126
934.732	0.0288775
934.866	0.0290028
935	0.0281258
935.134	0.0279379
935.269	0.0289401
935.403	0.0290654
935.537	0.0280631
935.671	0.0283137
935.805	0.0288148
935.939	0.0290654
936.073	0.0282511
936.207	0.0293786
936.341	0.0292533
936.476	0.0281884
936.61	0.0290028
936.744	0.028439
936.878	0.0276873
937.012	0.0279379
937.146	0.0286896
937.28	0.0286269
937.414	0.0288775
937.548	0.0278752
937.683	0.0294412
937.817	0.028439
937.951	0.0280005
938.085	0.0283137
938.219	0.0286269
938.353	0.0280631
938.487	0.0298171
938.621	0.0280631
938.755	0.0282511
938.889	0.0282511
939.024	0.0285016
939.158	0.0280005
939.292	0.0286269
939.426	0.0279379
939.56	0.0286269
939.694	0.0277499
939.828	0.0290654
939.962	0.0286896
940.096	0.028439
940.231	0.0290654
940.365	0.0280631
940.499	0.0291907
940.633	0.0286896
940.767	0.0290654
940.901	0.0283137
941.035	0.0283137
941.169	0.0285016
941.303	0.0281258
941.437	0.0283137
941.571	0.0285643
941.706	0.0290654
941.84	0.0281258
941.974	0.0285643
942.108	0.0283763
942.242	0.0278752
942.376	0.0290654
942.51	0.0283763
942.644	0.0289401
942.778	0.0289401
942.912	0.0290654
943.047	0.0280005
943.181	0.0282511
943.315	0.0281258
943.449	0.0292533
943.583	0.0283137
943.717	0.0276873
943.851	0.0286269
943.985	0.0276873
944.119	0.0278126
944.253	0.0276873
944.387	0.028439
944.522	0.0276873
944.656	0.0285643
944.79	0.0288148
944.924	0.0283137
945.058	0.0287522
945.192	0.0283137
945.326	0.0277499
945.46	0.0288775
945.594	0.0283137
945.728	0.0280631
945.862	0.0290654
945.996	0.0286269
946.131	0.029316
946.265	0.0291907
946.399	0.0290654
946.533	0.028439
946.667	0.0279379
946.801	0.0283763
946.935	0.0280005
947.069	0.0286269
947.203	0.0285643
947.337	0.0286896
947.471	0.028439
947.605	0.0285643
947.739	0.0285016
947.874	0.0289401
948.008	0.0286896
948.142	0.0279379
948.276	0.0288775
948.41	0.0278126
948.544	0.0281258
948.678	0.0285016
948.812	0.0280631
948.946	0.0283763
949.08	0.027562
949.214	0.0286269
949.348	0.0281884
949.482	0.0285016
949.617	0.0290028
949.751	0.0277499
949.885	0.0278752
950.019	0.028439
950.153	0.0289401
950.287	0.0285016
950.421	0.0283763
950.555	0.0283763
950.689	0.0289401
950.823	0.0286896
950.957	0.0273115
951.091	0.0290028
951.225	0.028439
951.359	0.0287522
951.493	0.0281258
951.628	0.0279379
951.762	0.0285016
951.896	0.0273115
952.03	0.0278126
952.164	0.0288148
952.298	0.0282511
952.432	0.0285643
952.566	0.0282511
952.7	0.0287522
952.834	0.0290028
952.968	0.028439
953.102	0.0285016
953.236	0.0286896
953.37	0.0280005
953.504	0.0281884
953.639	0.0295039
953.773	0.029128
953.907	0.0280005
954.041	0.027562
954.175	0.0280005
954.309	0.0287522
954.443	0.0283137
954.577	0.0279379
954.711	0.028439
954.845	0.0286896
954.979	0.0283763
955.113	0.0274994
955.247	0.0286269
955.381	0.0276247
955.515	0.0290028
955.649	0.0290654
955.783	0.0277499
955.917	0.0296918
956.052	0.0286269
956.186	0.0283763
956.32	0.0288775
956.454	0.0291907
956.588	0.0286896
956.722	0.0280631
956.856	0.0282511
956.99	0.0290654
957.124	0.0289401
957.258	0.0286269
957.392	0.0290654
957.526	0.0283137
957.66	0.0288148
957.794	0.0285643
957.928	0.0285016
958.062	0.0282511
958.196	0.0283763
958.33	0.0292533
958.464	0.0283137
958.598	0.0281884
958.733	0.0282511
958.867	0.0286896
959.001	0.0278126
959.135	0.0289401
959.269	0.0282511
959.403	0.0287522
959.537	0.0283763
959.671	0.028439
959.805	0.0290028
959.939	0.0285643
960.073	0.0288775
960.207	0.0273115
960.341	0.0286269
960.475	0.0285643
960.609	0.0289401
960.743	0.0285016
960.877	0.0277499
961.011	0.0283137
961.145	0.0281258
961.279	0.0282511
961.413	0.0278752
961.547	0.0289401
961.681	0.0279379
961.815	0.029316
961.949	0.0292533
962.083	0.0285016
962.218	0.0282511
962.352	0.0283137
962.486	0.0283763
962.62	0.0283763
962.754	0.0288775
962.888	0.0283137
963.022	0.0279379
963.156	0.0281258
963.29	0.0283137
963.424	0.0286269
963.558	0.0290028
963.692	0.0278752
963.826	0.0286269
963.96	0.0282511
964.094	0.0280631
964.228	0.0290654
964.362	0.0285643
964.496	0.0281884
964.63	0.029128
964.764	0.028439
964.898	0.0292533
965.032	0.0285643
965.166	0.0286269
965.3	0.0289401
965.434	0.0280631
965.568	0.0286269
965.702	0.0288148
965.836	0.0286269
965.97	0.0285016
966.104	0.0285016
966.238	0.0283137
966.372	0.0287522
966.506	0.029128
966.64	0.0287522
966.774	0.0283763
966.908	0.0279379
967.043	0.0289401
967.177	0.0280005
967.311	0.0288775
967.445	0.0281258
967.579	0.0288775
967.713	0.027562
967.847	0.0285016
967.981	0.0289401
968.115	0.0286896
968.249	0.0285643
968.383	0.0280631
968.517	0.0276247
968.651	0.0278752
968.785	0.0288775
968.919	0.0290654
969.053	0.0283137
969.187	0.0276873
969.321	0.028439
969.455	0.0283137
969.589	0.0282511
969.723	0.0280005
969.857	0.0286269
969.991	0.027562
970.125	0.0283137
970.259	0.0283137
970.393	0.0287522
970.527	0.0289401
970.661	0.0287522
970.795	0.0279379
970.929	0.0289401
971.063	0.0289401
971.197	0.0289401
971.331	0.0288148
971.465	0.0281884
971.599	0.0281258
971.733	0.0286269
971.867	0.0289401
972.001	0.0274367
972.135	0.0287522
972.269	0.0288775
972.403	0.0276873
972.537	0.0278126
972.671	0.0286269
972.805	0.0287522
972.939	0.0282511
973.073	0.0291907
973.207	0.0283763
973.341	0.0285016
973.475	0.0285016
973.609	0.0285643
973.743	0.0278126
973.877	0.0285643
974.011	0.0279379
974.145	0.0278126
974.279	0.0277499
974.413	0.0292533
974.547	0.028439
974.681	0.0288775
974.815	0.0280631
974.949	0.0271235
975.083	0.0282511
975.217	0.0286896
975.351	0.0286269
975.485	0.0282511
975.619	0.0286269
975.753	0.0287522
975.887	0.0274994
976.021	0.0283763
976.155	0.0276247
976.289	0.0282511
976.423	0.0278752
976.557	0.0274994
976.691	0.0285016
976.825	0.0288775
976.959	0.0281884
977.093	0.0280631
977.227	0.0290028
977.361	0.0293786
977.495	0.0290028
977.629	0.0286896
977.763	0.027562
977.897	0.0288148
978.031	0.0285016
978.165	0.0288775
978.299	0.0286896
978.433	0.0283137
978.567	0.028439
978.701	0.0282511
978.835	0.0288148
978.969	0.0281884
979.103	0.028439
979.237	0.0290028
979.371	0.0281884
979.505	0.0289401
979.639	0.0280631
979.773	0.0276247
979.907	0.0283763
980.041	0.0286269
980.175	0.0290028
980.308	0.0281258
980.442	0.027562
980.576	0.0278126
980.71	0.0290028
980.844	0.0282511
980.978	0.0283137
981.112	0.0283137
981.246	0.0282511
981.38	0.0278126
981.514	0.0278126
981.648	0.0280631
981.782	0.0276873
981.916	0.0286896
982.05	0.0278752
982.184	0.0285016
982.318	0.0285016
982.452	0.0285643
982.586	0.0281884
982.72	0.0270609
982.854	0.0283763
982.988	0.0281258
983.122	0.0287522
983.256	0.0280005
983.39	0.0285643
983.524	0.0281258
983.658	0.0290028
983.792	0.0296918
983.926	0.0285643
984.06	0.0281258
984.194	0.0271862
984.328	0.0290654
984.462	0.0288148
984.596	0.0292533
984.73	0.0277499
984.864	0.028439
984.998	0.0285016
985.132	0.0288148
985.265	0.0279379
985.399	0.0281258
985.533	0.028439
985.667	0.0290654
985.801	0.0281884
985.935	0.0285016
986.069	0.0286269
986.203	0.0285016
986.337	0.0277499
986.471	0.0281258
986.605	0.0279379
986.739	0.0295665
986.873	0.029128
987.007	0.0288148
987.141	0.0283137
987.275	0.0280005
987.409	0.0280005
987.543	0.0279379
987.677	0.0280005
987.811	0.0294412
987.945	0.0280631
988.079	0.0281884
988.213	0.0281884
988.347	0.0288148
988.481	0.0280005
988.614	0.0291907
988.748	0.0283137
988.882	0.0281258
989.016	0.0278752
989.15	0.0278752
989.284	0.0285643
989.418	0.0287522
989.552	0.0279379
989.686	0.0291907
989.82	0.0279379
989.954	0.0285643
990.088	0.0285016
990.222	0.0286896
990.356	0.0287522
990.49	0.0283763
990.624	0.0281258
990.758	0.0282511
990.892	0.0274994
991.026	0.0295039
991.16	0.0285016
991.294	0.0286269
991.427	0.0280631
991.561	0.0281884
991.695	0.0278126
991.829	0.0279379
991.963	0.0278752
992.097	0.0285016
992.231	0.0285643
992.365	0.0294412
992.499	0.0281258
992.633	0.0283763
992.767	0.028439
992.901	0.0290028
993.035	0.0283763
993.169	0.0295039
993.303	0.0269356
993.437	0.0292533
993.571	0.0285016
993.704	0.0290028
993.838	0.0290028
993.972	0.0280005
994.106	0.0290028
994.24	0.0286269
994.374	0.0288148
994.508	0.0285643
994.642	0.0285016
994.776	0.0279379
994.91	0.0277499
995.044	0.0283763
995.178	0.0282511
995.312	0.0283763
995.446	0.0287522
995.58	0.0282511
995.714	0.0286269
995.847	0.0288148
995.981	0.0285016
996.115	0.029128
996.249	0.028439
996.383	0.0280631
996.517	0.0289401
996.651	0.0288775
996.785	0.0280631
996.919	0.0287522
997.053	0.0289401
997.187	0.0278126
997.321	0.0291907
997.455	0.0278126
997.589	0.0276873
997.722	0.0285643
997.856	0.0289401
997.99	0.0295039
998.124	0.0283763
998.258	0.0290028
998.392	0.0269356
998.526	0.0286269
998.66	0.028439
998.794	0.0288775
998.928	0.0283763
999.062	0.0283137
999.196	0.0274994
999.33	0.0291907
999.464	0.028439
999.597	0.0288775
999.731	0.0288148
999.865	0.029316
999.999	0.0286269
1000.13	0.0285643
1000.27	0.0288148
1000.4	0.0288148
1000.53	0.0283763
1000.67	0.028439
1000.8	0.0283137
1000.94	0.0286269
1001.07	0.0282511
1001.2	0.0286269
1001.34	0.0278752
1001.47	0.0276247
1001.61	0.0286896
1001.74	0.0285643
1001.87	0.0283763
1002.01	0.0285643
1002.14	0.0283137
1002.28	0.0288148
1002.41	0.0286269
1002.54	0.0279379
1002.68	0.0282511
1002.81	0.0288148
1002.95	0.0289401
1003.08	0.0283763
1003.21	0.0290028
1003.35	0.0285016
1003.48	0.0282511
1003.61	0.028439
1003.75	0.028439
1003.88	0.0288148
1004.02	0.0288148
1004.15	0.029128
1004.28	0.0288148
1004.42	0.0282511
1004.55	0.0286269
1004.69	0.0277499
1004.82	0.028439
1004.95	0.0290028
1005.09	0.0274367
1005.22	0.0288775
1005.36	0.0286896
1005.49	0.0280631
1005.62	0.0279379
1005.76	0.0286269
1005.89	0.0280005
1006.03	0.028439
1006.16	0.0283137
1006.29	0.0290654
1006.43	0.028439
1006.56	0.0288148
1006.69	0.0293786
1006.83	0.0290028
1006.96	0.0282511
1007.1	0.0296918
1007.23	0.0281258
1007.36	0.0280631
1007.5	0.0287522
1007.63	0.0290028
1007.77	0.0290654
1007.9	0.0288148
1008.03	0.0281884
1008.17	0.0290028
1008.3	0.0288775
1008.44	0.0268103
1008.57	0.0286896
1008.7	0.0277499
1008.84	0.0287522
1008.97	0.0287522
1009.1	0.0276247
1009.24	0.0282511
1009.37	0.0296292
1009.51	0.0283763
1009.64	0.0283763
1009.77	0.0285643
1009.91	0.0292533
1010.04	0.0274994
1010.18	0.0286896
1010.31	0.0290654
1010.44	0.0288148
1010.58	0.0281258
1010.71	0.0286896
1010.85	0.0280005
1010.98	0.0279379
1011.11	0.0281884
1011.25	0.0290654
1011.38	0.0280631
1011.51	0.0276873
1011.65	0.0279379
1011.78	0.0283137
1011.92	0.0290028
1012.05	0.0287522
1012.18	0.0286269
1012.32	0.0287522
1012.45	0.0289401
1012.59	0.0283763
1012.72	0.0286896
1012.85	0.0285643
1012.99	0.0288148
1013.12	0.0286896
1013.26	0.0285016
1013.39	0.0290028
1013.52	0.0283137
1013.66	0.0286896
1013.79	0.028439
1013.92	0.029316
1014.06	0.0278752
1014.19	0.0291907
1014.33	0.0285643
1014.46	0.028439
1014.59	0.0282511
1014.73	0.0290028
1014.86	0.0286269
1015	0.0288775
1015.13	0.0281258
1015.26	0.0286896
1015.4	0.0290654
1015.53	0.0280631
1015.67	0.0276873
1015.8	0.027562
1015.93	0.0288775
1016.07	0.0286896
1016.2	0.0273115
1016.33	0.0277499
1016.47	0.0289401
1016.6	0.0285016
1016.74	0.0283763
1016.87	0.0288775
1017	0.0288148
1017.14	0.0280631
1017.27	0.0282511
1017.41	0.0285016
1017.54	0.0285643
1017.67	0.0280631
1017.81	0.0295665
1017.94	0.0280005
1018.07	0.028439
1018.21	0.0289401
1018.34	0.0283763
1018.48	0.0285643
1018.61	0.0290028
1018.74	0.0280005
1018.88	0.0283763
1019.01	0.0280631
1019.15	0.0286896
1019.28	0.0293786
1019.41	0.027562
1019.55	0.0282511
1019.68	0.0287522
1019.82	0.028439
1019.95	0.0288148
1020.08	0.028439
1020.22	0.0283763
1020.35	0.0287522
1020.48	0.0279379
1020.62	0.0293786
1020.75	0.0286896
1020.89	0.0281884
1021.02	0.0289401
1021.15	0.0289401
1021.29	0.0278752
1021.42	0.0288148
1021.56	0.0280005
1021.69	0.0278752
1021.82	0.0276247
1021.96	0.0288775
1022.09	0.0281884
1022.22	0.0281884
1022.36	0.0285016
1022.49	0.0285016
1022.63	0.0278752
1022.76	0.0281258
1022.89	0.0280005
1023.03	0.0280631
1023.16	0.0288775
1023.3	0.0285016
1023.43	0.0288148
1023.56	0.0285643
1023.7	0.0282511
1023.83	0.0289401
1023.96	0.0276873
1024.1	0.0288775
1024.23	0.0286269
1024.37	0.0289401
1024.5	0.0282511
1024.63	0.0283137
1024.77	0.0279379
1024.9	0.0285016
1025.04	0.0293786
1025.17	0.0285016
1025.3	0.028439
1025.44	0.0283763
1025.57	0.0293786
1025.7	0.0281258
1025.84	0.0274994
1025.97	0.0277499
1026.11	0.0280631
1026.24	0.027562
1026.37	0.0283137
1026.51	0.0289401
1026.64	0.0287522
1026.78	0.0292533
1026.91	0.0283137
1027.04	0.029128
1027.18	0.028439
1027.31	0.0281884
1027.44	0.0280005
1027.58	0.0281884
1027.71	0.0286896
1027.85	0.0285643
1027.98	0.0281258
1028.11	0.0279379
1028.25	0.0283137
1028.38	0.028439
1028.52	0.0287522
1028.65	0.0287522
1028.78	0.0283763
1028.92	0.0283137
1029.05	0.0281884
1029.18	0.0286269
1029.32	0.0288775
1029.45	0.0287522
1029.59	0.0285016
1029.72	0.0290028
1029.85	0.0281258
1029.99	0.0278126
1030.12	0.029128
1030.26	0.0279379
1030.39	0.0286269
1030.52	0.028439
1030.66	0.0291907
1030.79	0.0286896
1030.92	0.0281884
1031.06	0.0288775
1031.19	0.0286269
1031.33	0.0283763
1031.46	0.0277499
1031.59	0.0285643
1031.73	0.0287522
1031.86	0.0285016
1031.99	0.028439
1032.13	0.0288775
1032.26	0.0285643
1032.4	0.0280631
1032.53	0.0285016
1032.66	0.0287522
1032.8	0.0286896
1032.93	0.0281258
1033.07	0.0277499
1033.2	0.0281258
1033.33	0.0283763
1033.47	0.0283763
1033.6	0.0290654
1033.73	0.0283763
1033.87	0.0278126
1034	0.0280631
1034.14	0.0283763
1034.27	0.0276247
1034.4	0.0292533
1034.54	0.0282511
1034.67	0.0281884
1034.81	0.0280631
1034.94	0.0289401
1035.07	0.0285016
1035.21	0.0272488
1035.34	0.0289401
1035.47	0.0280005
1035.61	0.0282511
1035.74	0.0285643
1035.88	0.0290028
1036.01	0.0285016
1036.14	0.0288775
1036.28	0.028439
1036.41	0.0281258
1036.54	0.0285016
1036.68	0.0282511
1036.81	0.028439
1036.95	0.0288775
1037.08	0.0283763
1037.21	0.0290028
1037.35	0.0291907
1037.48	0.0289401
1037.62	0.0291907
1037.75	0.0270609
1037.88	0.0283763
1038.02	0.0280005
1038.15	0.0283763
1038.28	0.0281884
1038.42	0.0285643
1038.55	0.0282511
1038.69	0.0286896
1038.82	0.0286269
1038.95	0.0280631
1039.09	0.0285016
1039.22	0.029128
1039.35	0.0280005
1039.49	0.0287522
1039.62	0.0274994
1039.76	0.0282511
1039.89	0.0280005
1040.02	0.0277499
1040.16	0.0283763
1040.29	0.0285016
1040.43	0.0277499
1040.56	0.0285643
1040.69	0.027562
1040.83	0.0280631
1040.96	0.0281884
1041.09	0.0292533
1041.23	0.0283763
1041.36	0.0285643
1041.5	0.028439
1041.63	0.0286896
1041.76	0.0290654
1041.9	0.0281258
1042.03	0.0287522
1042.16	0.0285643
1042.3	0.0278752
1042.43	0.0282511
1042.57	0.0285016
1042.7	0.0288148
1042.83	0.0285016
1042.97	0.0278752
1043.1	0.0288148
1043.23	0.0295665
1043.37	0.0288775
1043.5	0.0283763
1043.64	0.0283137
1043.77	0.0285643
1043.9	0.0281258
1044.04	0.0283137
1044.17	0.0281884
1044.31	0.0289401
1044.44	0.0276247
1044.57	0.0286896
1044.71	0.0282511
1044.84	0.0273741
1044.97	0.0291907
1045.11	0.028439
1045.24	0.0281884
1045.38	0.0288148
1045.51	0.0280005
1045.64	0.0287522
1045.78	0.0281258
1045.91	0.0281884
1046.04	0.0290654
1046.18	0.0285016
1046.31	0.0285016
1046.45	0.0285643
1046.58	0.0278752
1046.71	0.0285643
1046.85	0.0287522
1046.98	0.0290028
1047.11	0.0283137
1047.25	0.0286269
1047.38	0.0289401
1047.52	0.0282511
1047.65	0.0283763
1047.78	0.0287522
1047.92	0.0290654
1048.05	0.0290028
1048.18	0.0287522
1048.32	0.0286896
1048.45	0.0283763
1048.59	0.0289401
1048.72	0.0286896
1048.85	0.0283137
1048.99	0.0287522
1049.12	0.029128
1049.25	0.0281884
1049.39	0.0283137
1049.52	0.0285643
1049.66	0.0283763
1049.79	0.0281884
1049.92	0.0288148
1050.06	0.0281884
1050.19	0.0286269
1050.33	0.0288148
1050.46	0.0290028
1050.59	0.0278126
1050.73	0.0287522
1050.86	0.0286896
1050.99	0.0283763
1051.13	0.0293786
1051.26	0.0287522
1051.4	0.0278126
1051.53	0.0283137
1051.66	0.0281258
1051.8	0.0289401
1051.93	0.0281884
1052.06	0.0288148
1052.2	0.0285016
1052.33	0.0285016
1052.47	0.0277499
1052.6	0.0289401
1052.73	0.0274994
1052.87	0.0276873
1053	0.0282511
1053.13	0.0286896
1053.27	0.0291907
1053.4	0.0288775
1053.54	0.0293786
1053.67	0.0286269
1053.8	0.0285016
1053.94	0.0278126
1054.07	0.028439
1054.2	0.0277499
1054.34	0.0285643
1054.47	0.0280005
1054.61	0.0282511
1054.74	0.0282511
1054.87	0.0286269
1055.01	0.0290028
1055.14	0.0276873
1055.27	0.028439
1055.41	0.0293786
1055.54	0.0278126
1055.68	0.0280631
1055.81	0.0290654
1055.94	0.0291907
1056.08	0.0278126
1056.21	0.0280631
1056.34	0.0294412
1056.48	0.0283763
1056.61	0.0281884
1056.75	0.0287522
1056.88	0.028439
1057.01	0.0285016
1057.15	0.0286896
1057.28	0.0279379
1057.41	0.0280631
1057.55	0.0278126
1057.68	0.0286896
1057.82	0.028439
1057.95	0.028439
1058.08	0.0281884
1058.22	0.0287522
1058.35	0.0293786
1058.48	0.0286896
1058.62	0.028439
1058.75	0.0280631
1058.89	0.0288148
1059.02	0.0280005
1059.15	0.0287522
1059.29	0.0283763
1059.42	0.0281884
1059.55	0.0286896
1059.69	0.0282511
1059.82	0.028439
1059.96	0.0282511
1060.09	0.0286269
1060.22	0.0281258
1060.36	0.0288775
1060.49	0.0286896
1060.62	0.0286269
1060.76	0.0289401
1060.89	0.0282511
1061.03	0.0290654
1061.16	0.029128
1061.29	0.0286896
1061.43	0.0286896
1061.56	0.0281258
1061.69	0.0287522
1061.83	0.0285643
1061.96	0.0291907
1062.1	0.0276247
1062.23	0.0285016
1062.36	0.0286269
1062.5	0.0282511
1062.63	0.0286896
1062.76	0.0283763
1062.9	0.0278752
1063.03	0.0289401
1063.17	0.0291907
1063.3	0.0288775
1063.43	0.0291907
1063.57	0.0286896
1063.7	0.0277499
1063.83	0.0285643
1063.97	0.0285643
1064.1	0.0283137
1064.23	0.0283137
1064.37	0.0288148
1064.5	0.0281884
1064.64	0.0277499
1064.77	0.0283763
1064.9	0.028439
1065.04	0.0277499
1065.17	0.0292533
1065.3	0.0272488
1065.44	0.029128
1065.57	0.0285643
1065.71	0.0291907
1065.84	0.0292533
1065.97	0.0290028
1066.11	0.0287522
1066.24	0.0288775
1066.37	0.0285016
1066.51	0.0285643
1066.64	0.0279379
1066.78	0.0290654
1066.91	0.0286269
1067.04	0.0282511
1067.18	0.0286896
1067.31	0.0277499
1067.44	0.0291907
1067.58	0.0286269
1067.71	0.028439
1067.85	0.0286896
1067.98	0.0280631
1068.11	0.0279379
1068.25	0.0288775
1068.38	0.0283763
1068.51	0.0281258
1068.65	0.0287522
1068.78	0.0289401
1068.92	0.0286896
1069.05	0.0290028
1069.18	0.0288775
1069.32	0.0296292
1069.45	0.028439
1069.58	0.028439
1069.72	0.0281258
1069.85	0.0289401
1069.98	0.0292533
1070.12	0.0285643
1070.25	0.0279379
1070.39	0.0281884
1070.52	0.0294412
1070.65	0.0286896
1070.79	0.0288148
1070.92	0.0286269
1071.05	0.0293786
1071.19	0.0290028
1071.32	0.029128
1071.46	0.0280005
1071.59	0.0291907
1071.72	0.0278752
1071.86	0.028439
1071.99	0.0296292
1072.12	0.0287522
1072.26	0.0281884
1072.39	0.0280631
1072.53	0.0286896
1072.66	0.028439
1072.79	0.0290654
1072.93	0.0273741
1073.06	0.027562
1073.19	0.0281884
1073.33	0.0292533
1073.46	0.0285016
1073.59	0.0289401
1073.73	0.0274994
1073.86	0.0277499
1074	0.027562
1074.13	0.0281258
1074.26	0.0286269
1074.4	0.0296292
1074.53	0.0289401
1074.66	0.0288775
1074.8	0.028439
1074.93	0.0276873
1075.07	0.0286896
1075.2	0.0279379
1075.33	0.0292533
1075.47	0.0290654
1075.6	0.0281258
1075.73	0.0282511
1075.87	0.0288148
1076	0.0280631
1076.14	0.0288148
1076.27	0.0280631
1076.4	0.0276873
1076.54	0.0280631
1076.67	0.028439
1076.8	0.028439
1076.94	0.0285643
1077.07	0.029316
1077.2	0.0279379
1077.34	0.0289401
1077.47	0.0285016
1077.61	0.0277499
1077.74	0.0278126
1077.87	0.0289401
1078.01	0.029128
1078.14	0.028439
1078.27	0.0283763
1078.41	0.0279379
1078.54	0.0278126
1078.68	0.027562
1078.81	0.0296292
1078.94	0.0285643
1079.08	0.0289401
1079.21	0.0286269
1079.34	0.0291907
1079.48	0.0292533
1079.61	0.0290654
1079.74	0.0278126
1079.88	0.029316
1080.01	0.0290028
1080.15	0.0280631
1080.28	0.0283137
1080.41	0.0282511
1080.55	0.0293786
1080.68	0.028439
1080.81	0.0296292
1080.95	0.0283137
1081.08	0.0285016
1081.22	0.0282511
1081.35	0.0292533
1081.48	0.0286269
1081.62	0.0286896
1081.75	0.0286896
1081.88	0.0288148
1082.02	0.0292533
1082.15	0.0282511
1082.28	0.0290028
1082.42	0.0278752
1082.55	0.0288148
1082.69	0.0283763
1082.82	0.0280631
1082.95	0.029128
1083.09	0.028439
1083.22	0.0283763
1083.35	0.0286269
1083.49	0.028439
1083.62	0.0280631
1083.75	0.0279379
1083.89	0.0281258
1084.02	0.0287522
1084.16	0.0287522
1084.29	0.0289401
1084.42	0.0298797
1084.56	0.029128
1084.69	0.0289401
1084.82	0.027562
1084.96	0.0278752
1085.09	0.0286269
1085.23	0.029128
1085.36	0.0285643
1085.49	0.0290028
1085.63	0.0289401
1085.76	0.0283763
1085.89	0.0288148
1086.03	0.0282511
1086.16	0.028439
1086.29	0.029128
1086.43	0.0286896
1086.56	0.0290028
1086.7	0.0286269
1086.83	0.029316
1086.96	0.0283763
1087.1	0.0278126
1087.23	0.0283763
1087.36	0.0279379
1087.5	0.028439
1087.63	0.0288775
1087.76	0.0286269
1087.9	0.0278752
1088.03	0.0291907
1088.17	0.0282511
1088.3	0.0288148
1088.43	0.0289401
1088.57	0.0281258
1088.7	0.029128
1088.83	0.0274994
1088.97	0.0285016
1089.1	0.028439
1089.24	0.0288148
1089.37	0.0281258
1089.5	0.0280005
1089.64	0.0286896
1089.77	0.0290028
1089.9	0.0283137
1090.04	0.0276873
1090.17	0.0276247
1090.3	0.0287522
1090.44	0.0294412
1090.57	0.0295665
1090.71	0.0285016
1090.84	0.0288775
1090.97	0.0272488
1091.11	0.0280631
1091.24	0.0287522
1091.37	0.0281258
1091.51	0.0289401
1091.64	0.0285016
1091.77	0.0278752
1091.91	0.0286269
1092.04	0.0274367
1092.18	0.0290028
1092.31	0.0285016
1092.44	0.0281258
1092.58	0.0283763
1092.71	0.0286269
1092.84	0.027562
1092.98	0.0279379
1093.11	0.0286896
1093.24	0.0288148
1093.38	0.0279379
1093.51	0.0291907
1093.65	0.0286896
1093.78	0.0285643
1093.91	0.0282511
1094.05	0.028439
1094.18	0.0290654
1094.31	0.0289401
1094.45	0.0278752
1094.58	0.0290028
1094.71	0.0280005
1094.85	0.0290654
1094.98	0.0288148
1095.12	0.0285016
1095.25	0.0290654
1095.38	0.0291907
1095.52	0.029128
1095.65	0.0295039
1095.78	0.0296292
1095.92	0.0276247
1096.05	0.029128
1096.18	0.0289401
1096.32	0.0279379
1096.45	0.0295039
1096.59	0.0280005
1096.72	0.029128
1096.85	0.0287522
1096.99	0.0296918
1097.12	0.0288148
1097.25	0.0281884
1097.39	0.0295039
1097.52	0.0286896
1097.65	0.0281884
1097.79	0.0285643
1097.92	0.0283137
1098.06	0.0286896
1098.19	0.0283137
1098.32	0.028439
1098.46	0.0285643
1098.59	0.0285643
1098.72	0.0276873
1098.86	0.0288148
1098.99	0.0279379
1099.12	0.0290028
1099.26	0.0288148
1099.39	0.0283763
1099.53	0.0281884
1099.66	0.0281258
1099.79	0.0286896
1099.93	0.0278752
1100.06	0.0281884
1100.19	0.0273741
1100.33	0.0285643
1100.46	0.0281884
1100.59	0.027562
1100.73	0.0288775
1100.86	0.0279379
1100.99	0.0290654
1101.13	0.0274994
1101.26	0.0285016
1101.4	0.0288775
1101.53	0.0285643
1101.66	0.0289401
1101.8	0.0286896
1101.93	0.0282511
1102.06	0.028439
1102.2	0.0283137
1102.33	0.0286269
1102.46	0.0283137
1102.6	0.028439
1102.73	0.0281884
1102.87	0.0283763
1103	0.0292533
1103.13	0.0294412
1103.27	0.0298171
1103.4	0.0285016
1103.53	0.028439
1103.67	0.027562
1103.8	0.0282511
1103.93	0.0290654
1104.07	0.0278752
1104.2	0.028439
1104.34	0.0289401
1104.47	0.0289401
1104.6	0.0288775
1104.74	0.0279379
1104.87	0.0278752
1105	0.0290654
1105.14	0.0277499
1105.27	0.0282511
1105.4	0.0273741
1105.54	0.0280005
1105.67	0.0286896
1105.8	0.0286269
1105.94	0.0286269
1106.07	0.0276247
1106.21	0.0279379
1106.34	0.0289401
1106.47	0.0283137
1106.61	0.0283763
1106.74	0.0280631
1106.87	0.0286269
1107.01	0.0288775
1107.14	0.0288775
1107.27	0.0281258
1107.41	0.0283763
1107.54	0.0295039

