Source: Spectrum Viewer

Chart: Pulse Spectrum

Series: 
Wavelength (nm)	S (a.u.)
617.638	0.0274065
617.773	0.0283831
617.908	0.0280168
618.043	0.0277117
618.178	0.0280168
618.313	0.0282
618.448	0.0271623
618.583	0.0278337
618.718	0.0286883
618.853	0.0278948
618.988	0.0271623
619.123	0.0274675
619.258	0.0281389
619.394	0.0277117
619.529	0.028261
619.664	0.0277117
619.799	0.0277727
619.934	0.0286272
620.069	0.0278948
620.204	0.0275285
620.339	0.0275896
620.474	0.0275285
620.609	0.0285052
620.744	0.0276506
620.879	0.0283831
621.014	0.0281389
621.149	0.0275285
621.284	0.0279558
621.419	0.0277117
621.554	0.0278337
621.689	0.0275896
621.825	0.0271013
621.96	0.0280168
622.095	0.0278948
622.23	0.0277117
622.365	0.0281389
622.5	0.0284441
622.635	0.0272233
622.77	0.0275896
622.905	0.0274065
623.04	0.0277117
623.175	0.0283831
623.31	0.0284441
623.445	0.0287493
623.58	0.0271623
623.715	0.0283831
623.85	0.0288104
623.985	0.0274065
624.12	0.0280779
624.255	0.0279558
624.39	0.0276506
624.525	0.0280168
624.661	0.0280168
624.796	0.0280168
624.931	0.0277117
625.066	0.0280779
625.201	0.026674
625.336	0.0274065
625.471	0.0271623
625.606	0.0271013
625.741	0.0285662
625.876	0.0278948
626.011	0.0275285
626.146	0.0277727
626.281	0.0271623
626.416	0.0271623
626.551	0.0277727
626.686	0.028261
626.821	0.0270402
626.956	0.0274675
627.091	0.0278337
627.226	0.0277117
627.361	0.0284441
627.496	0.0280779
627.631	0.0282
627.766	0.0277117
627.901	0.0277117
628.036	0.0273454
628.171	0.0269181
628.307	0.0272233
628.442	0.0280168
628.577	0.0284441
628.712	0.0274065
628.847	0.0276506
628.982	0.0278948
629.117	0.0277727
629.252	0.0277117
629.387	0.028261
629.522	0.0278337
629.657	0.0272844
629.792	0.0279558
629.927	0.0275285
630.062	0.0282
630.197	0.0272844
630.332	0.0271013
630.467	0.026613
630.602	0.0285052
630.737	0.0286272
630.872	0.0278337
631.007	0.0275285
631.142	0.0278948
631.277	0.0274675
631.412	0.0279558
631.547	0.0267961
631.682	0.0269181
631.817	0.0272233
631.952	0.0277117
632.087	0.0276506
632.222	0.0282
632.357	0.0280779
632.492	0.0281389
632.627	0.0273454
632.762	0.0279558
632.897	0.0279558
633.032	0.0283831
633.167	0.0280779
633.302	0.0274675
633.437	0.0274675
633.572	0.0277727
633.707	0.0280168
633.842	0.0279558
633.978	0.0272844
634.113	0.028322
634.248	0.0272233
634.383	0.0275285
634.518	0.0267961
634.653	0.0271013
634.788	0.0268571
634.923	0.0278337
635.058	0.0274065
635.193	0.0282
635.328	0.0274065
635.463	0.0278948
635.598	0.0274675
635.733	0.0275896
635.868	0.0279558
636.003	0.0276506
636.138	0.0278337
636.273	0.0274675
636.408	0.0276506
636.543	0.0283831
636.678	0.0274675
636.813	0.0278948
636.948	0.026735
637.083	0.0277117
637.218	0.0281389
637.353	0.0273454
637.488	0.0273454
637.623	0.0275285
637.758	0.0279558
637.893	0.0278948
638.028	0.0275285
638.163	0.0277117
638.298	0.0275285
638.433	0.0273454
638.568	0.0271013
638.703	0.0274675
638.838	0.0272844
638.973	0.0280168
639.108	0.0280779
639.243	0.0283831
639.378	0.0283831
639.513	0.0279558
639.648	0.0281389
639.783	0.0278337
639.918	0.0271623
640.053	0.0271013
640.188	0.0279558
640.323	0.0276506
640.458	0.0275896
640.593	0.0286272
640.728	0.0279558
640.863	0.0280779
640.998	0.0265519
641.133	0.0278337
641.268	0.0267961
641.403	0.0276506
641.538	0.0279558
641.673	0.0277117
641.808	0.0278337
641.943	0.0276506
642.078	0.0280779
642.213	0.0275285
642.348	0.0278948
642.483	0.0273454
642.618	0.0276506
642.753	0.0281389
642.888	0.0272233
643.023	0.0274675
643.158	0.0274065
643.293	0.0278948
643.428	0.0276506
643.563	0.0274065
643.698	0.0276506
643.833	0.0278337
643.968	0.028322
644.103	0.0285052
644.237	0.0279558
644.372	0.0285662
644.507	0.0272233
644.642	0.0272844
644.777	0.0273454
644.912	0.0274675
645.047	0.0276506
645.182	0.028322
645.317	0.0269792
645.452	0.026735
645.587	0.0275285
645.722	0.0284441
645.857	0.0279558
645.992	0.0265519
646.127	0.0280168
646.262	0.028322
646.397	0.0279558
646.532	0.0275896
646.667	0.0286272
646.802	0.0288104
646.937	0.0272844
647.072	0.0275285
647.207	0.0271013
647.342	0.028322
647.477	0.0277727
647.612	0.0288104
647.747	0.0271623
647.882	0.0291766
648.017	0.0271013
648.152	0.0277727
648.287	0.0276506
648.422	0.0267961
648.557	0.0274065
648.692	0.0281389
648.827	0.0285052
648.962	0.0285662
649.097	0.0269792
649.232	0.0285662
649.367	0.0282
649.502	0.0278337
649.637	0.0272844
649.772	0.0285662
649.906	0.0275285
650.041	0.0274065
650.176	0.0274065
650.311	0.0283831
650.446	0.0286272
650.581	0.0274065
650.716	0.0280779
650.851	0.0272233
650.986	0.0277727
651.121	0.0279558
651.256	0.0277117
651.391	0.0284441
651.526	0.0278948
651.661	0.0280779
651.796	0.0274675
651.931	0.0280168
652.066	0.0278337
652.201	0.028261
652.336	0.0279558
652.471	0.0268571
652.606	0.0280168
652.741	0.0272233
652.876	0.0271013
653.011	0.0284441
653.146	0.0276506
653.281	0.0274675
653.415	0.0275285
653.55	0.0278948
653.685	0.0274675
653.82	0.0280168
653.955	0.0274675
654.09	0.0285662
654.225	0.0271013
654.36	0.0271623
654.495	0.0272233
654.63	0.0275896
654.765	0.0279558
654.9	0.0274065
655.035	0.0286272
655.17	0.0273454
655.305	0.0278337
655.44	0.0278948
655.575	0.028322
655.71	0.0280168
655.845	0.0274065
655.98	0.0272844
656.115	0.0280779
656.25	0.0285052
656.384	0.0280168
656.519	0.0277727
656.654	0.0275285
656.789	0.0283831
656.924	0.0274675
657.059	0.0277727
657.194	0.0277727
657.329	0.0274065
657.464	0.0278948
657.599	0.0289324
657.734	0.0275285
657.869	0.0276506
658.004	0.0276506
658.139	0.0278337
658.274	0.0283831
658.409	0.0275285
658.544	0.0282
658.679	0.0277727
658.813	0.0275285
658.948	0.0276506
659.083	0.0284441
659.218	0.0281389
659.353	0.0281389
659.488	0.0279558
659.623	0.0272233
659.758	0.0278337
659.893	0.0282
660.028	0.0278948
660.163	0.0286272
660.298	0.0275896
660.433	0.0274675
660.568	0.0275896
660.703	0.0285052
660.838	0.0285662
660.972	0.0272844
661.107	0.0274065
661.242	0.0280168
661.377	0.028261
661.512	0.0280779
661.647	0.0284441
661.782	0.0280779
661.917	0.0278337
662.052	0.0278337
662.187	0.028322
662.322	0.0271623
662.457	0.0273454
662.592	0.0280168
662.727	0.028322
662.862	0.0277117
662.996	0.0271623
663.131	0.0276506
663.266	0.0275285
663.401	0.0272844
663.536	0.0274675
663.671	0.0271623
663.806	0.0278948
663.941	0.0275285
664.076	0.0278337
664.211	0.028322
664.346	0.0277117
664.481	0.0278948
664.616	0.0274675
664.75	0.0280779
664.885	0.0272233
665.02	0.0275285
665.155	0.0274675
665.29	0.0278948
665.425	0.0278948
665.56	0.0273454
665.695	0.0278337
665.83	0.0282
665.965	0.0277727
666.1	0.0275285
666.235	0.028322
666.37	0.0277117
666.504	0.0277727
666.639	0.0274065
666.774	0.0278337
666.909	0.0280779
667.044	0.0272233
667.179	0.0272233
667.314	0.0283831
667.449	0.0276506
667.584	0.0278337
667.719	0.0270402
667.854	0.0274675
667.989	0.0278948
668.123	0.0277117
668.258	0.0273454
668.393	0.0280779
668.528	0.028261
668.663	0.0274675
668.798	0.0282
668.933	0.028261
669.068	0.0279558
669.203	0.0280168
669.338	0.0280779
669.473	0.0274675
669.607	0.0280779
669.742	0.0278337
669.877	0.026674
670.012	0.0273454
670.147	0.028261
670.282	0.0277727
670.417	0.0275285
670.552	0.0278337
670.687	0.0282
670.822	0.028322
670.957	0.0276506
671.091	0.0270402
671.226	0.028261
671.361	0.0283831
671.496	0.0277117
671.631	0.0278948
671.766	0.0282
671.901	0.0275896
672.036	0.0278948
672.171	0.0279558
672.306	0.0276506
672.44	0.0281389
672.575	0.0280168
672.71	0.0276506
672.845	0.0276506
672.98	0.0278948
673.115	0.0278948
673.25	0.0278337
673.385	0.0278337
673.52	0.028322
673.655	0.0274065
673.789	0.0277117
673.924	0.028322
674.059	0.0280779
674.194	0.0274065
674.329	0.0281389
674.464	0.0271623
674.599	0.0277727
674.734	0.0289935
674.869	0.028322
675.003	0.0274675
675.138	0.0284441
675.273	0.0275896
675.408	0.028261
675.543	0.0273454
675.678	0.0280168
675.813	0.0281389
675.948	0.0271013
676.083	0.0272233
676.217	0.0277727
676.352	0.0269181
676.487	0.0278948
676.622	0.0281389
676.757	0.0280779
676.892	0.0271623
677.027	0.0275285
677.162	0.0277727
677.297	0.028322
677.431	0.0271013
677.566	0.0272844
677.701	0.0267961
677.836	0.0275896
677.971	0.0278948
678.106	0.0275285
678.241	0.0278948
678.376	0.0275285
678.511	0.0276506
678.645	0.0277727
678.78	0.0285052
678.915	0.0274065
679.05	0.0280168
679.185	0.0286883
679.32	0.0275896
679.455	0.0272844
679.59	0.0269181
679.724	0.0277117
679.859	0.0280168
679.994	0.028322
680.129	0.0275896
680.264	0.0277727
680.399	0.0280168
680.534	0.026613
680.669	0.0277117
680.803	0.028322
680.938	0.0281389
681.073	0.0277727
681.208	0.0278337
681.343	0.0272844
681.478	0.0287493
681.613	0.0272233
681.748	0.0274675
681.882	0.0273454
682.017	0.028261
682.152	0.0274675
682.287	0.0281389
682.422	0.0277727
682.557	0.0269181
682.692	0.0278337
682.827	0.0276506
682.961	0.0280168
683.096	0.0278948
683.231	0.0272233
683.366	0.028261
683.501	0.0275285
683.636	0.0271013
683.771	0.0285052
683.906	0.028322
684.04	0.0273454
684.175	0.0284441
684.31	0.0277117
684.445	0.0267961
684.58	0.0278948
684.715	0.0284441
684.85	0.0278337
684.984	0.0277727
685.119	0.0282
685.254	0.026735
685.389	0.0278337
685.524	0.0277117
685.659	0.0277727
685.794	0.0278337
685.928	0.0287493
686.063	0.0280168
686.198	0.0282
686.333	0.0279558
686.468	0.0281389
686.603	0.0279558
686.738	0.028322
686.872	0.0272844
687.007	0.0280168
687.142	0.0276506
687.277	0.0279558
687.412	0.0278337
687.547	0.0272233
687.682	0.0276506
687.816	0.0284441
687.951	0.0279558
688.086	0.0278337
688.221	0.026735
688.356	0.028322
688.491	0.0271013
688.626	0.0279558
688.76	0.0277117
688.895	0.0276506
689.03	0.0274065
689.165	0.0273454
689.3	0.026735
689.435	0.0280779
689.57	0.0278337
689.704	0.0280168
689.839	0.0280779
689.974	0.0286883
690.109	0.0274675
690.244	0.0277117
690.379	0.0278948
690.513	0.0280168
690.648	0.0282
690.783	0.0277727
690.918	0.0278948
691.053	0.0277727
691.188	0.0275285
691.323	0.0279558
691.457	0.0274675
691.592	0.0275896
691.727	0.0272844
691.862	0.028322
691.997	0.0270402
692.132	0.0279558
692.266	0.0274065
692.401	0.0281389
692.536	0.0280168
692.671	0.0282
692.806	0.0278337
692.941	0.0269792
693.075	0.0276506
693.21	0.0280168
693.345	0.0273454
693.48	0.028322
693.615	0.0289324
693.75	0.0287493
693.885	0.0277117
694.019	0.0274675
694.154	0.0275896
694.289	0.0282
694.424	0.0280168
694.559	0.0280779
694.694	0.0280168
694.828	0.0285052
694.963	0.0277117
695.098	0.0283831
695.233	0.0284441
695.368	0.028322
695.503	0.0272233
695.637	0.0287493
695.772	0.0271013
695.907	0.0274675
696.042	0.0277117
696.177	0.0274065
696.312	0.0277727
696.446	0.0285052
696.581	0.0269181
696.716	0.0288714
696.851	0.0278337
696.986	0.0277727
697.12	0.0288714
697.255	0.0286272
697.39	0.0275285
697.525	0.0277727
697.66	0.028261
697.795	0.0286272
697.929	0.0278948
698.064	0.028322
698.199	0.0281389
698.334	0.0280779
698.469	0.0270402
698.604	0.0274675
698.738	0.0282
698.873	0.0280779
699.008	0.0275285
699.143	0.0272844
699.278	0.0275896
699.412	0.0277117
699.547	0.0275896
699.682	0.0275896
699.817	0.0269792
699.952	0.0278337
700.087	0.0278337
700.221	0.0274065
700.356	0.0283831
700.491	0.0275896
700.626	0.0275896
700.761	0.0277117
700.895	0.0275285
701.03	0.0274065
701.165	0.0278948
701.3	0.028261
701.435	0.028322
701.57	0.0272233
701.704	0.0277727
701.839	0.0285052
701.974	0.0275285
702.109	0.0272844
702.244	0.0272233
702.378	0.0282
702.513	0.0279558
702.648	0.0281389
702.783	0.0275896
702.918	0.0277117
703.052	0.0274065
703.187	0.0271623
703.322	0.028322
703.457	0.0282
703.592	0.0287493
703.727	0.0277117
703.861	0.0277727
703.996	0.0281389
704.131	0.0272233
704.266	0.0277727
704.401	0.0276506
704.535	0.0274065
704.67	0.0276506
704.805	0.0281389
704.94	0.0271623
705.075	0.0275896
705.209	0.0274675
705.344	0.0279558
705.479	0.0285662
705.614	0.0277117
705.749	0.0281389
705.883	0.0286272
706.018	0.0274675
706.153	0.0269792
706.288	0.028322
706.423	0.0272844
706.557	0.0275285
706.692	0.0274065
706.827	0.0274065
706.962	0.0273454
707.097	0.0280168
707.231	0.0278948
707.366	0.0281389
707.501	0.0274065
707.636	0.0277117
707.771	0.026613
707.905	0.0279558
708.04	0.0272233
708.175	0.0274675
708.31	0.0276506
708.445	0.0286883
708.579	0.0280779
708.714	0.0278337
708.849	0.0274065
708.984	0.0278948
709.118	0.0275896
709.253	0.0268571
709.388	0.0271623
709.523	0.0280168
709.658	0.0277727
709.792	0.028261
709.927	0.0281389
710.062	0.0286272
710.197	0.0273454
710.332	0.0272844
710.466	0.0277727
710.601	0.0282
710.736	0.0280779
710.871	0.0269181
711.006	0.0273454
711.14	0.0273454
711.275	0.0277727
711.41	0.0285052
711.545	0.0275285
711.679	0.0275285
711.814	0.0275285
711.949	0.0275285
712.084	0.0277727
712.219	0.0280168
712.353	0.0278337
712.488	0.0274675
712.623	0.0278337
712.758	0.0291766
712.892	0.0277117
713.027	0.0277727
713.162	0.0277727
713.297	0.0276506
713.432	0.0278948
713.566	0.0284441
713.701	0.0278337
713.836	0.0274675
713.971	0.0281389
714.105	0.0278337
714.24	0.0277117
714.375	0.0278948
714.51	0.0275285
714.645	0.0274675
714.779	0.0289324
714.914	0.0282
715.049	0.0277117
715.184	0.0277117
715.318	0.0282
715.453	0.0272844
715.588	0.0276506
715.723	0.028261
715.858	0.0274065
715.992	0.0283831
716.127	0.0276506
716.262	0.0285662
716.397	0.0277117
716.531	0.0263688
716.666	0.0280168
716.801	0.026674
716.936	0.0284441
717.07	0.0278337
717.205	0.0284441
717.34	0.028322
717.475	0.0286883
717.61	0.0270402
717.744	0.0285052
717.879	0.0286883
718.014	0.0280168
718.149	0.0280779
718.283	0.0275896
718.418	0.0278337
718.553	0.0280779
718.688	0.0280779
718.822	0.0283831
718.957	0.0278337
719.092	0.0284441
719.227	0.0272844
719.361	0.0281389
719.496	0.0274065
719.631	0.0279558
719.766	0.0275896
719.9	0.0280168
720.035	0.0279558
720.17	0.0286883
720.305	0.0272844
720.44	0.0274675
720.574	0.0277727
720.709	0.0281389
720.844	0.0271013
720.979	0.0284441
721.113	0.0283831
721.248	0.0271013
721.383	0.0283831
721.518	0.0278948
721.652	0.0289324
721.787	0.0271013
721.922	0.0287493
722.057	0.0280168
722.191	0.0281389
722.326	0.0276506
722.461	0.0272233
722.596	0.0275896
722.73	0.0280168
722.865	0.0275285
723	0.0275285
723.135	0.0271623
723.269	0.0278337
723.404	0.028322
723.539	0.0272844
723.674	0.026674
723.808	0.0276506
723.943	0.0280779
724.078	0.0284441
724.213	0.0273454
724.347	0.0277727
724.482	0.0273454
724.617	0.0270402
724.752	0.0273454
724.886	0.028261
725.021	0.0280779
725.156	0.0275285
725.291	0.0278948
725.425	0.0274675
725.56	0.0269181
725.695	0.0267961
725.829	0.0286272
725.964	0.0277117
726.099	0.0285052
726.234	0.0279558
726.368	0.0271013
726.503	0.0272233
726.638	0.0265519
726.773	0.0275896
726.907	0.0270402
727.042	0.0274675
727.177	0.0279558
727.312	0.0274675
727.446	0.0277727
727.581	0.0277117
727.716	0.0269792
727.851	0.0277117
727.985	0.0274065
728.12	0.0280168
728.255	0.0279558
728.389	0.0280779
728.524	0.0282
728.659	0.0277727
728.794	0.0281389
728.928	0.0277727
729.063	0.0277727
729.198	0.0281389
729.333	0.0282
729.467	0.0279558
729.602	0.0277727
729.737	0.0276506
729.872	0.028322
730.006	0.0272233
730.141	0.0286272
730.276	0.0285052
730.41	0.0288714
730.545	0.0269792
730.68	0.0280779
730.815	0.0278948
730.949	0.0272844
731.084	0.0271623
731.219	0.0280779
731.354	0.0282
731.488	0.0283831
731.623	0.0283831
731.758	0.0272233
731.892	0.0278337
732.027	0.0272844
732.162	0.0282
732.297	0.0277727
732.431	0.0277727
732.566	0.0273454
732.701	0.0282
732.835	0.0278948
732.97	0.0278337
733.105	0.0275896
733.24	0.028261
733.374	0.0271013
733.509	0.0283831
733.644	0.0273454
733.779	0.0263688
733.913	0.0281389
734.048	0.0269792
734.183	0.0279558
734.317	0.0279558
734.452	0.0274675
734.587	0.0273454
734.722	0.0274675
734.856	0.0276506
734.991	0.0285052
735.126	0.0277117
735.26	0.0285662
735.395	0.0263688
735.53	0.0271013
735.665	0.0278337
735.799	0.0285662
735.934	0.0274065
736.069	0.0282
736.203	0.0285052
736.338	0.0280779
736.473	0.0274065
736.607	0.0272844
736.742	0.0278948
736.877	0.0288104
737.012	0.0274065
737.146	0.0274675
737.281	0.0277117
737.416	0.0274675
737.55	0.0286883
737.685	0.0274065
737.82	0.028322
737.955	0.0288714
738.089	0.028261
738.224	0.0280779
738.359	0.0277117
738.493	0.0278948
738.628	0.0269792
738.763	0.0275896
738.897	0.0273454
739.032	0.0280168
739.167	0.0273454
739.302	0.0269792
739.436	0.0287493
739.571	0.0275896
739.706	0.0281389
739.84	0.0276506
739.975	0.0271623
740.11	0.0275285
740.244	0.0277727
740.379	0.0274065
740.514	0.0284441
740.649	0.0278948
740.783	0.0275896
740.918	0.0272844
741.053	0.0280168
741.187	0.0272844
741.322	0.0269792
741.457	0.0276506
741.591	0.0283831
741.726	0.0275285
741.861	0.0271623
741.996	0.0280168
742.13	0.0270402
742.265	0.0279558
742.4	0.0277117
742.534	0.0275285
742.669	0.0280779
742.804	0.0285052
742.938	0.0277117
743.073	0.0271013
743.208	0.0269792
743.342	0.0275285
743.477	0.0272844
743.612	0.0272233
743.747	0.0272844
743.881	0.0279558
744.016	0.0285052
744.151	0.0271623
744.285	0.0275285
744.42	0.0285052
744.555	0.0282
744.689	0.0278337
744.824	0.0272233
744.959	0.0278337
745.093	0.0269181
745.228	0.0285662
745.363	0.0271013
745.497	0.0292376
745.632	0.0272844
745.767	0.0272844
745.901	0.0281389
746.036	0.0280779
746.171	0.0278948
746.305	0.0273454
746.44	0.0280779
746.575	0.0280779
746.71	0.0278948
746.844	0.0274675
746.979	0.0285052
747.114	0.0276506
747.248	0.0264909
747.383	0.0277117
747.518	0.0273454
747.652	0.0276506
747.787	0.0274065
747.922	0.028261
748.056	0.0278337
748.191	0.0275285
748.326	0.0277727
748.46	0.0278948
748.595	0.026735
748.73	0.0280168
748.864	0.0285052
748.999	0.0274675
749.134	0.0277727
749.268	0.0287493
749.403	0.0285052
749.538	0.0280168
749.672	0.0272844
749.807	0.0275285
749.942	0.0286883
750.076	0.0274675
750.211	0.0278337
750.346	0.0269181
750.48	0.026674
750.615	0.0277727
750.75	0.0275896
750.884	0.0278337
751.019	0.0272844
751.154	0.0270402
751.288	0.0281389
751.423	0.0280168
751.558	0.0276506
751.692	0.0278337
751.827	0.0280779
751.962	0.0275896
752.096	0.0278337
752.231	0.0279558
752.366	0.0279558
752.5	0.0287493
752.635	0.0278337
752.77	0.028261
752.904	0.0290545
753.039	0.0271623
753.174	0.0277117
753.308	0.0284441
753.443	0.0282
753.578	0.0271623
753.712	0.0282
753.847	0.0283831
753.982	0.0272844
754.116	0.0285662
754.251	0.028322
754.386	0.0279558
754.52	0.0284441
754.655	0.0284441
754.79	0.0278337
754.924	0.0274065
755.059	0.0274675
755.194	0.0283831
755.328	0.0282
755.463	0.0272233
755.597	0.0272233
755.732	0.0275285
755.867	0.0275285
756.001	0.0284441
756.136	0.0278337
756.271	0.0272233
756.405	0.0276506
756.54	0.0285052
756.675	0.0274675
756.809	0.0280779
756.944	0.0272844
757.079	0.0277117
757.213	0.0286272
757.348	0.0280779
757.483	0.0275896
757.617	0.0275896
757.752	0.0278337
757.887	0.0269792
758.021	0.0275285
758.156	0.0278337
758.29	0.0276506
758.425	0.028261
758.56	0.0278337
758.694	0.028322
758.829	0.0280779
758.964	0.0280168
759.098	0.0277117
759.233	0.0278948
759.368	0.0278337
759.502	0.0275896
759.637	0.0275285
759.772	0.0279558
759.906	0.0280168
760.041	0.0279558
760.175	0.0272844
760.31	0.0279558
760.445	0.0277727
760.579	0.0279558
760.714	0.0274675
760.849	0.0277117
760.983	0.0284441
761.118	0.0273454
761.253	0.0279558
761.387	0.0277727
761.522	0.0278948
761.656	0.0278337
761.791	0.0279558
761.926	0.0281389
762.06	0.0277117
762.195	0.0271623
762.33	0.0274065
762.464	0.0274065
762.599	0.0282
762.733	0.0272844
762.868	0.0281389
763.003	0.0280779
763.137	0.0283831
763.272	0.0275285
763.407	0.0285662
763.541	0.0275896
763.676	0.0276506
763.811	0.0277727
763.945	0.0279558
764.08	0.0277727
764.214	0.0267961
764.349	0.0279558
764.484	0.0278948
764.618	0.0278337
764.753	0.0277117
764.888	0.0280168
765.022	0.0278948
765.157	0.0277117
765.291	0.0271623
765.426	0.0271623
765.561	0.0280168
765.695	0.026735
765.83	0.0282
765.965	0.0274065
766.099	0.0274065
766.234	0.0278337
766.368	0.0279558
766.503	0.0274675
766.638	0.028322
766.772	0.0279558
766.907	0.0268571
767.041	0.0275896
767.176	0.0270402
767.311	0.0273454
767.445	0.028261
767.58	0.0278337
767.715	0.0278337
767.849	0.0271013
767.984	0.0272844
768.118	0.0275285
768.253	0.0279558
768.388	0.0274675
768.522	0.0273454
768.657	0.0277727
768.791	0.0277117
768.926	0.0277727
769.061	0.028261
769.195	0.0285052
769.33	0.028322
769.465	0.0282
769.599	0.0284441
769.734	0.0267961
769.868	0.0282
770.003	0.0278337
770.138	0.0278337
770.272	0.028261
770.407	0.0271013
770.541	0.0269792
770.676	0.0276506
770.811	0.0278337
770.945	0.0280168
771.08	0.0280779
771.214	0.0280168
771.349	0.0279558
771.484	0.0275285
771.618	0.0277117
771.753	0.0273454
771.887	0.0270402
772.022	0.0279558
772.157	0.0274675
772.291	0.0274065
772.426	0.028322
772.56	0.0270402
772.695	0.0277727
772.83	0.0271623
772.964	0.0275285
773.099	0.0278337
773.233	0.028322
773.368	0.0268571
773.503	0.0276506
773.637	0.0274065
773.772	0.0280168
773.906	0.0277727
774.041	0.0278948
774.176	0.028261
774.31	0.0285052
774.445	0.0275285
774.579	0.0278337
774.714	0.0277117
774.849	0.0281389
774.983	0.0280779
775.118	0.0282
775.252	0.0274675
775.387	0.0280168
775.522	0.0277727
775.656	0.0282
775.791	0.0275896
775.925	0.028322
776.06	0.0282
776.195	0.0276506
776.329	0.0276506
776.464	0.0280168
776.598	0.0282
776.733	0.0274065
776.868	0.0284441
777.002	0.0278948
777.137	0.0271623
777.271	0.028261
777.406	0.0278337
777.54	0.0277117
777.675	0.0275285
777.81	0.0274065
777.944	0.0276506
778.079	0.0274675
778.213	0.0276506
778.348	0.0277727
778.483	0.0277727
778.617	0.0278948
778.752	0.0272233
778.886	0.0283831
779.021	0.0275285
779.155	0.0277117
779.29	0.0275896
779.425	0.0272233
779.559	0.0272233
779.694	0.0276506
779.828	0.028261
779.963	0.0276506
780.098	0.0278337
780.232	0.0280779
780.367	0.0272233
780.501	0.0280168
780.636	0.0287493
780.77	0.0277117
780.905	0.0271013
781.04	0.0284441
781.174	0.0279558
781.309	0.0283831
781.443	0.0277727
781.578	0.0282
781.712	0.0278948
781.847	0.0282
781.982	0.0272233
782.116	0.0278948
782.251	0.0276506
782.385	0.0274675
782.52	0.028261
782.654	0.0278948
782.789	0.0280168
782.924	0.0274065
783.058	0.0277117
783.193	0.0282
783.327	0.028261
783.462	0.0277117
783.596	0.0273454
783.731	0.0276506
783.866	0.0277727
784	0.0281389
784.135	0.028261
784.269	0.0273454
784.404	0.0280168
784.538	0.0276506
784.673	0.0274675
784.808	0.0277117
784.942	0.0275285
785.077	0.0273454
785.211	0.0270402
785.346	0.0281389
785.48	0.0285662
785.615	0.0290545
785.75	0.0277117
785.884	0.0272844
786.019	0.0277117
786.153	0.0282
786.288	0.0280779
786.422	0.0278948
786.557	0.028261
786.691	0.0275896
786.826	0.0267961
786.961	0.0276506
787.095	0.028322
787.23	0.0282
787.364	0.0272844
787.499	0.028261
787.633	0.0284441
787.768	0.0275285
787.902	0.0275896
788.037	0.0282
788.172	0.0280168
788.306	0.0270402
788.441	0.0280168
788.575	0.0276506
788.71	0.0277117
788.844	0.0277117
788.979	0.0274675
789.113	0.0282
789.248	0.0277117
789.383	0.028261
789.517	0.0280168
789.652	0.0281389
789.786	0.0278337
789.921	0.0274065
790.055	0.0275285
790.19	0.0280168
790.324	0.0282
790.459	0.0280168
790.594	0.0274065
790.728	0.0277727
790.863	0.0277727
790.997	0.0277727
791.132	0.0278948
791.266	0.0280168
791.401	0.0274065
791.535	0.0288714
791.67	0.0280168
791.804	0.0285052
791.939	0.0269792
792.074	0.0278337
792.208	0.0280779
792.343	0.0272233
792.477	0.0277117
792.612	0.0285662
792.746	0.0277117
792.881	0.0278948
793.015	0.0278337
793.15	0.0277727
793.284	0.0273454
793.419	0.0275896
793.553	0.0272844
793.688	0.0283831
793.823	0.0275285
793.957	0.0280779
794.092	0.028261
794.226	0.0280168
794.361	0.0269792
794.495	0.0277117
794.63	0.0273454
794.764	0.0276506
794.899	0.0280168
795.033	0.0272844
795.168	0.0276506
795.302	0.028261
795.437	0.0280779
795.572	0.0275285
795.706	0.0278337
795.841	0.0272233
795.975	0.0279558
796.11	0.0275896
796.244	0.0280168
796.379	0.0277727
796.513	0.0279558
796.648	0.0280779
796.782	0.0277117
796.917	0.028322
797.051	0.0278948
797.186	0.0285052
797.32	0.0278948
797.455	0.0289324
797.589	0.0278948
797.724	0.0277117
797.859	0.028261
797.993	0.0277727
798.128	0.0278948
798.262	0.028261
798.397	0.0277117
798.531	0.0272233
798.666	0.0281389
798.8	0.0271013
798.935	0.0275285
799.069	0.0285662
799.204	0.0280168
799.338	0.0275896
799.473	0.0278337
799.607	0.0278337
799.742	0.0272844
799.876	0.0275896
800.011	0.0279558
800.145	0.0279558
800.28	0.0279558
800.414	0.0277727
800.549	0.0274065
800.683	0.0279558
800.818	0.0274065
800.953	0.0273454
801.087	0.0274065
801.222	0.0288104
801.356	0.0285052
801.491	0.0284441
801.625	0.0280168
801.76	0.0278337
801.894	0.0281389
802.029	0.0272233
802.163	0.0276506
802.298	0.0280779
802.432	0.0286883
802.567	0.028261
802.701	0.0278948
802.836	0.0280779
802.97	0.0286272
803.105	0.0277727
803.239	0.0275285
803.374	0.0278948
803.508	0.0281389
803.643	0.028322
803.777	0.0284441
803.912	0.0283831
804.046	0.0272844
804.181	0.0285052
804.315	0.0280168
804.45	0.0283831
804.584	0.0275285
804.719	0.0278948
804.853	0.0278948
804.988	0.0274675
805.122	0.0279558
805.257	0.028261
805.391	0.0287493
805.526	0.0280779
805.66	0.0285662
805.795	0.0281389
805.929	0.0284441
806.064	0.0286883
806.198	0.0284441
806.333	0.0281389
806.467	0.0284441
806.602	0.0288104
806.736	0.0288104
806.871	0.0288714
807.005	0.0285662
807.14	0.0282
807.274	0.0292376
807.409	0.0292376
807.543	0.0285662
807.678	0.0294207
807.812	0.0294818
807.947	0.0289935
808.081	0.0288714
808.216	0.029848
808.35	0.0289935
808.485	0.029848
808.619	0.0297259
808.754	0.0292376
808.888	0.0292987
809.023	0.0302142
809.157	0.0300922
809.292	0.0316792
809.426	0.0308857
809.561	0.0300311
809.695	0.0308857
809.83	0.0300311
809.964	0.0310078
810.099	0.0303974
810.233	0.0312519
810.368	0.0306415
810.502	0.0313129
810.637	0.0313129
810.771	0.0315571
810.906	0.0322896
811.04	0.0319233
811.175	0.0326558
811.309	0.033022
811.444	0.0332052
811.578	0.032961
811.713	0.0339987
811.847	0.0346701
811.982	0.0348532
812.116	0.0366233
812.251	0.0368064
812.385	0.0376
812.519	0.0384545
812.654	0.0395532
812.788	0.042422
812.923	0.0426662
813.057	0.0451688
813.192	0.0469999
813.326	0.0531038
813.461	0.0767869
813.595	0.153757
813.73	0.149911
813.864	0.114753
813.999	0.156626
814.133	0.340231
814.268	0.870353
814.402	1
814.537	1
814.671	1
814.806	1
814.94	1
815.075	1
815.209	0.997925
815.344	0.998596
815.478	0.992797
815.612	0.992431
815.747	0.986449
815.881	0.984008
816.016	0.977965
816.15	0.968504
816.285	0.963438
816.419	0.933162
816.554	0.938717
816.688	0.834096
816.823	0.9577
816.957	0.731002
817.092	0.500275
817.226	0.569127
817.361	0.3525
817.495	0.0981505
817.63	0.0506012
817.764	0.0433986
817.898	0.0403467
818.033	0.0396142
818.167	0.0383935
818.302	0.0361961
818.436	0.0360129
818.571	0.0347311
818.705	0.0338766
818.84	0.0341818
818.974	0.0333272
819.109	0.032961
819.243	0.0328389
819.378	0.0330831
819.512	0.0320454
819.646	0.0319844
819.781	0.0319844
819.915	0.0312519
820.05	0.0307026
820.184	0.0304584
820.319	0.0308857
820.453	0.0305805
820.588	0.0304584
820.722	0.0297259
820.857	0.0303974
820.991	0.0300922
821.126	0.0299701
821.26	0.0295428
821.394	0.0301532
821.529	0.0296039
821.663	0.0300311
821.798	0.0288714
821.932	0.0297259
822.067	0.0291766
822.201	0.0289324
822.336	0.0294207
822.47	0.0289935
822.605	0.0292376
822.739	0.0286272
822.873	0.0290545
823.008	0.0285052
823.142	0.0288104
823.277	0.0285052
823.411	0.0287493
823.546	0.0289324
823.68	0.0287493
823.815	0.0285662
823.949	0.0287493
824.083	0.0295428
824.218	0.0285052
824.352	0.0290545
824.487	0.0283831
824.621	0.0285052
824.756	0.028261
824.89	0.0280168
825.025	0.0280779
825.159	0.0276506
825.293	0.0286272
825.428	0.0285662
825.562	0.028322
825.697	0.0288714
825.831	0.0281389
825.966	0.028261
826.1	0.0280779
826.235	0.0288714
826.369	0.0278948
826.503	0.0278337
826.638	0.028261
826.772	0.0274065
826.907	0.0283831
827.041	0.0286883
827.176	0.0275896
827.31	0.028322
827.445	0.0277117
827.579	0.0284441
827.713	0.0273454
827.848	0.0275896
827.982	0.0272844
828.117	0.0282
828.251	0.0280779
828.386	0.0278948
828.52	0.028322
828.654	0.0274675
828.789	0.0278948
828.923	0.028261
829.058	0.0283831
829.192	0.0286883
829.327	0.028261
829.461	0.0278337
829.596	0.0281389
829.73	0.0279558
829.864	0.0275896
829.999	0.0276506
830.133	0.0274065
830.268	0.0278337
830.402	0.0283831
830.537	0.0280168
830.671	0.028322
830.805	0.0280779
830.94	0.0275285
831.074	0.0280168
831.209	0.0278948
831.343	0.0277117
831.478	0.0278948
831.612	0.0288104
831.746	0.0280779
831.881	0.0281389
832.015	0.028261
832.15	0.0285662
832.284	0.0270402
832.418	0.0277727
832.553	0.0273454
832.687	0.0285052
832.822	0.0280779
832.956	0.028261
833.091	0.028261
833.225	0.0272233
833.359	0.0277117
833.494	0.0275285
833.628	0.0280168
833.763	0.0280779
833.897	0.0271623
834.032	0.0283831
834.166	0.028322
834.3	0.0276506
834.435	0.0269181
834.569	0.0274065
834.704	0.0275896
834.838	0.028322
834.972	0.0283831
835.107	0.0285662
835.241	0.0282
835.376	0.0278948
835.51	0.0280779
835.645	0.0276506
835.779	0.0274065
835.913	0.0281389
836.048	0.0275896
836.182	0.0267961
836.317	0.028322
836.451	0.0274675
836.585	0.0283831
836.72	0.0277117
836.854	0.028261
836.989	0.0278948
837.123	0.0275285
837.257	0.0277727
837.392	0.0276506
837.526	0.0281389
837.661	0.0280779
837.795	0.0284441
837.929	0.028322
838.064	0.0272233
838.198	0.0270402
838.333	0.0275896
838.467	0.0273454
838.602	0.0278337
838.736	0.0276506
838.87	0.028261
839.005	0.0280779
839.139	0.0275285
839.274	0.0274065
839.408	0.0276506
839.542	0.0273454
839.677	0.0278948
839.811	0.0278948
839.946	0.0282
840.08	0.0278948
840.214	0.0278948
840.349	0.0283831
840.483	0.0275896
840.618	0.0285662
840.752	0.0281389
840.886	0.0271013
841.021	0.0276506
841.155	0.0274065
841.29	0.0285052
841.424	0.0278337
841.558	0.0277117
841.693	0.0277117
841.827	0.0276506
841.961	0.0275285
842.096	0.0283831
842.23	0.0274675
842.365	0.0285662
842.499	0.0275285
842.633	0.0279558
842.768	0.0280168
842.902	0.0273454
843.037	0.0277727
843.171	0.0282
843.305	0.0288714
843.44	0.0276506
843.574	0.026735
843.709	0.0274675
843.843	0.0275285
843.977	0.0274675
844.112	0.0279558
844.246	0.0283831
844.381	0.0276506
844.515	0.0280168
844.649	0.028261
844.784	0.0268571
844.918	0.0274675
845.052	0.0282
845.187	0.0282
845.321	0.028261
845.456	0.0277727
845.59	0.0278337
845.724	0.0277117
845.859	0.0275896
845.993	0.0286883
846.128	0.0270402
846.262	0.0272233
846.396	0.0280779
846.531	0.0269792
846.665	0.0283831
846.799	0.0271623
846.934	0.0281389
847.068	0.0286272
847.203	0.0284441
847.337	0.0271623
847.471	0.0271013
847.606	0.0280779
847.74	0.0271013
847.874	0.028322
848.009	0.0272233
848.143	0.0281389
848.278	0.028261
848.412	0.0279558
848.546	0.0287493
848.681	0.0270402
848.815	0.0280168
848.949	0.0281389
849.084	0.0275896
849.218	0.0282
849.353	0.0275896
849.487	0.0279558
849.621	0.0281389
849.756	0.0274675
849.89	0.028322
850.024	0.0280168
850.159	0.0277727
850.293	0.0281389
850.428	0.0277117
850.562	0.0278948
850.696	0.0279558
850.831	0.0276506
850.965	0.0280168
851.099	0.0280779
851.234	0.0281389
851.368	0.0275896
851.502	0.028322
851.637	0.0277727
851.771	0.028261
851.906	0.0280168
852.04	0.0280779
852.174	0.0273454
852.309	0.0275285
852.443	0.0278337
852.577	0.0282
852.712	0.0269792
852.846	0.0277727
852.98	0.0277117
853.115	0.0272844
853.249	0.0286272
853.384	0.0280168
853.518	0.0277117
853.652	0.028261
853.787	0.0275285
853.921	0.0275285
854.055	0.0274065
854.19	0.0274675
854.324	0.0272844
854.458	0.0278948
854.593	0.0275896
854.727	0.0275896
854.861	0.0281389
854.996	0.0277727
855.13	0.0279558
855.265	0.0279558
855.399	0.0275896
855.533	0.0272233
855.668	0.0278948
855.802	0.0272844
855.936	0.0281389
856.071	0.0268571
856.205	0.0270402
856.339	0.0270402
856.474	0.0277727
856.608	0.026674
856.742	0.0276506
856.877	0.0274675
857.011	0.0275896
857.145	0.0276506
857.28	0.0281389
857.414	0.0280779
857.549	0.0283831
857.683	0.0278337
857.817	0.0277727
857.952	0.0286883
858.086	0.0289324
858.22	0.0275285
858.355	0.0275896
858.489	0.0267961
858.623	0.0274065
858.758	0.0278337
858.892	0.0275896
859.026	0.0276506
859.161	0.0279558
859.295	0.0274675
859.429	0.0278337
859.564	0.0274675
859.698	0.0278337
859.832	0.0275896
859.967	0.0287493
860.101	0.0281389
860.235	0.0282
860.37	0.0279558
860.504	0.0274675
860.638	0.0268571
860.773	0.0278948
860.907	0.0278948
861.041	0.0275285
861.176	0.028322
861.31	0.0280168
861.444	0.0276506
861.579	0.0274675
861.713	0.0275896
861.847	0.0271623
861.982	0.0282
862.116	0.026674
862.25	0.0276506
862.385	0.0277727
862.519	0.0271623
862.653	0.0274065
862.788	0.028261
862.922	0.0277727
863.056	0.0274065
863.191	0.0278337
863.325	0.0269792
863.459	0.0285052
863.594	0.0286272
863.728	0.0282
863.862	0.0284441
863.997	0.0279558
864.131	0.0275896
864.265	0.0276506
864.4	0.0268571
864.534	0.0272233
864.668	0.0274675
864.803	0.0285662
864.937	0.028261
865.071	0.0285052
865.206	0.0272844
865.34	0.0280779
865.474	0.0273454
865.609	0.0283831
865.743	0.0277727
865.877	0.028322
866.012	0.0277117
866.146	0.0277727
866.28	0.0283831
866.415	0.0268571
866.549	0.0277727
866.683	0.0281389
866.818	0.0276506
866.952	0.0277117
867.086	0.0286272
867.221	0.0279558
867.355	0.0269792
867.489	0.0270402
867.623	0.0272233
867.758	0.0280168
867.892	0.0286272
868.026	0.026674
868.161	0.0275285
868.295	0.028261
868.429	0.0280779
868.564	0.0271623
868.698	0.026613
868.832	0.0277117
868.967	0.0288714
869.101	0.0280779
869.235	0.0270402
869.37	0.0285052
869.504	0.0268571
869.638	0.0272233
869.773	0.0280168
869.907	0.0275896
870.041	0.0275285
870.175	0.0272844
870.31	0.028261
870.444	0.0286883
870.578	0.028261
870.713	0.028261
870.847	0.0278948
870.981	0.028322
871.116	0.0274065
871.25	0.0277117
871.384	0.0288104
871.519	0.0271623
871.653	0.0279558
871.787	0.0277727
871.921	0.0288714
872.056	0.0271623
872.19	0.0276506
872.324	0.0279558
872.459	0.028322
872.593	0.0283831
872.727	0.0271013
872.862	0.0282
872.996	0.028261
873.13	0.0273454
873.264	0.0275285
873.399	0.0281389
873.533	0.0271623
873.667	0.0283831
873.802	0.0273454
873.936	0.0272844
874.07	0.0275285
874.205	0.0287493
874.339	0.0280779
874.473	0.0277117
874.607	0.0278337
874.742	0.0283831
874.876	0.0280779
875.01	0.0274065
875.145	0.0275896
875.279	0.0286883
875.413	0.0277117
875.548	0.0272233
875.682	0.0275285
875.816	0.0280168
875.95	0.0274675
876.085	0.0285052
876.219	0.0282
876.353	0.0272233
876.488	0.0285662
876.622	0.0276506
876.756	0.0275896
876.89	0.028261
877.025	0.0274675
877.159	0.0270402
877.293	0.0278948
877.428	0.0274065
877.562	0.0275896
877.696	0.0288714
877.83	0.0277727
877.965	0.028322
878.099	0.0269792
878.233	0.028261
878.368	0.028322
878.502	0.0279558
878.636	0.0268571
878.77	0.0284441
878.905	0.0277727
879.039	0.0271623
879.173	0.0283831
879.308	0.0277117
879.442	0.0275896
879.576	0.0274675
879.71	0.0278337
879.845	0.0282
879.979	0.0275285
880.113	0.0279558
880.248	0.0278337
880.382	0.0277117
880.516	0.028322
880.65	0.0263688
880.785	0.028261
880.919	0.0272233
881.053	0.028261
881.188	0.0279558
881.322	0.0274675
881.456	0.0273454
881.59	0.0272233
881.725	0.0278948
881.859	0.0277727
881.993	0.0277117
882.127	0.0272233
882.262	0.0277727
882.396	0.026735
882.53	0.0273454
882.665	0.0273454
882.799	0.0283831
882.933	0.028261
883.067	0.0277117
883.202	0.0278948
883.336	0.0283831
883.47	0.0280168
883.604	0.0281389
883.739	0.0285052
883.873	0.0281389
884.007	0.0274065
884.142	0.0269792
884.276	0.0277727
884.41	0.0269792
884.544	0.0285052
884.679	0.0285052
884.813	0.0271013
884.947	0.0282
885.081	0.0286272
885.216	0.0275285
885.35	0.028261
885.484	0.026735
885.618	0.0277117
885.753	0.0280168
885.887	0.0277117
886.021	0.0280168
886.155	0.0275285
886.29	0.0275896
886.424	0.0280168
886.558	0.0271013
886.693	0.0276506
886.827	0.0276506
886.961	0.0277117
887.095	0.028322
887.23	0.0277727
887.364	0.0271013
887.498	0.0278948
887.632	0.0271623
887.767	0.0274065
887.901	0.0274065
888.035	0.0271623
888.169	0.0277117
888.304	0.0283831
888.438	0.0280779
888.572	0.028261
888.706	0.0267961
888.841	0.0278948
888.975	0.0277117
889.109	0.0273454
889.243	0.0278337
889.378	0.0274065
889.512	0.028322
889.646	0.0278948
889.78	0.028322
889.915	0.0278948
890.049	0.0275896
890.183	0.0274675
890.317	0.0283831
890.452	0.0275285
890.586	0.0274065
890.72	0.0272844
890.854	0.0284441
890.989	0.0282
891.123	0.0281389
891.257	0.0280168
891.391	0.026674
891.526	0.0290545
891.66	0.0281389
891.794	0.0277117
891.928	0.0272233
892.063	0.0284441
892.197	0.0274065
892.331	0.0277727
892.465	0.0276506
892.6	0.0269792
892.734	0.0277727
892.868	0.0278948
893.002	0.0277727
893.137	0.0278337
893.271	0.0275285
893.405	0.0276506
893.539	0.0272233
893.674	0.0280779
893.808	0.0270402
893.942	0.0281389
894.076	0.0275285
894.21	0.0273454
894.345	0.0276506
894.479	0.0278948
894.613	0.0269792
894.747	0.0279558
894.882	0.0279558
895.016	0.0272233
895.15	0.028322
895.284	0.0274675
895.419	0.0272233
895.553	0.0280168
895.687	0.0272233
895.821	0.0282
895.956	0.0272844
896.09	0.028322
896.224	0.0271623
896.358	0.0289935
896.492	0.0281389
896.627	0.0274065
896.761	0.0281389
896.895	0.0272844
897.029	0.0273454
897.164	0.0277117
897.298	0.0274065
897.432	0.0281389
897.566	0.028322
897.701	0.0283831
897.835	0.028261
897.969	0.0280168
898.103	0.0277117
898.237	0.0285052
898.372	0.0277117
898.506	0.0275896
898.64	0.0280168
898.774	0.0272233
898.909	0.0273454
899.043	0.0279558
899.177	0.0278337
899.311	0.0277117
899.445	0.0280168
899.58	0.0274675
899.714	0.0271013
899.848	0.0273454
899.982	0.0279558
900.117	0.0278948
900.251	0.0271013
900.385	0.0276506
900.519	0.0276506
900.653	0.0279558
900.788	0.0286272
900.922	0.028261
901.056	0.0270402
901.19	0.0280779
901.325	0.0271623
901.459	0.028322
901.593	0.0274065
901.727	0.0275285
901.861	0.0278948
901.996	0.0275896
902.13	0.0271013
902.264	0.028322
902.398	0.0280779
902.532	0.026674
902.667	0.0278337
902.801	0.0277117
902.935	0.0283831
903.069	0.0276506
903.204	0.0271623
903.338	0.0290545
903.472	0.0275285
903.606	0.0282
903.74	0.0280168
903.875	0.0273454
904.009	0.0274675
904.143	0.0278948
904.277	0.0277727
904.411	0.0275896
904.546	0.0277117
904.68	0.0272844
904.814	0.0277727
904.948	0.0273454
905.082	0.0276506
905.217	0.0277117
905.351	0.0278337
905.485	0.0276506
905.619	0.0276506
905.753	0.0277117
905.888	0.0274065
906.022	0.0278337
906.156	0.028261
906.29	0.0273454
906.424	0.0271013
906.559	0.0274065
906.693	0.0277727
906.827	0.0270402
906.961	0.0283831
907.095	0.0269792
907.23	0.0269181
907.364	0.0275896
907.498	0.0284441
907.632	0.0285052
907.766	0.0272233
907.901	0.0282
908.035	0.0280168
908.169	0.0280168
908.303	0.0272233
908.437	0.0277117
908.572	0.0276506
908.706	0.0272844
908.84	0.0282
908.974	0.0278337
909.108	0.0277117
909.243	0.0272233
909.377	0.0278948
909.511	0.0286883
909.645	0.0277117
909.779	0.0277117
909.914	0.0269181
910.048	0.0278948
910.182	0.0276506
910.316	0.0274065
910.45	0.0280779
910.585	0.0275896
910.719	0.0280168
910.853	0.0272233
910.987	0.0282
911.121	0.0278337
911.255	0.0272233
911.39	0.0273454
911.524	0.0275285
911.658	0.0285052
911.792	0.0278337
911.926	0.0274675
912.061	0.0272844
912.195	0.0276506
912.329	0.0279558
912.463	0.028322
912.597	0.0275285
912.732	0.0272844
912.866	0.0277117
913	0.0278948
913.134	0.028261
913.268	0.0275896
913.402	0.0276506
913.537	0.028261
913.671	0.0272233
913.805	0.0278337
913.939	0.0277727
914.073	0.028322
914.208	0.0272844
914.342	0.0269792
914.476	0.0269792
914.61	0.0270402
914.744	0.0270402
914.878	0.0280779
915.013	0.0275285
915.147	0.0275896
915.281	0.0273454
915.415	0.028322
915.549	0.0271623
915.683	0.0278948
915.818	0.0280779
915.952	0.0278337
916.086	0.0275896
916.22	0.0280168
916.354	0.0280779
916.488	0.0277727
916.623	0.0272844
916.757	0.0277117
916.891	0.0278948
917.025	0.0281389
917.159	0.028322
917.293	0.0279558
917.428	0.0277117
917.562	0.0279558
917.696	0.0273454
917.83	0.0272844
917.964	0.0281389
918.098	0.0283831
918.233	0.0274065
918.367	0.028322
918.501	0.0284441
918.635	0.0280168
918.769	0.0277117
918.903	0.0285052
919.038	0.028322
919.172	0.0275896
919.306	0.0274065
919.44	0.028261
919.574	0.0283831
919.708	0.0275285
919.843	0.0275285
919.977	0.0281389
920.111	0.0278948
920.245	0.028261
920.379	0.0280168
920.513	0.0273454
920.648	0.0273454
920.782	0.0272844
920.916	0.0264298
921.05	0.0278337
921.184	0.0278948
921.318	0.0272844
921.453	0.0278337
921.587	0.0279558
921.721	0.0279558
921.855	0.0269792
921.989	0.0276506
922.123	0.0280779
922.257	0.0278948
922.392	0.0271623
922.526	0.0283831
922.66	0.0285662
922.794	0.0273454
922.928	0.0274675
923.062	0.0280779
923.197	0.0287493
923.331	0.0274065
923.465	0.0272233
923.599	0.0272233
923.733	0.0275285
923.867	0.0274675
924.001	0.028261
924.136	0.0284441
924.27	0.0275896
924.404	0.0283831
924.538	0.0275285
924.672	0.0277117
924.806	0.0280168
924.94	0.028322
925.075	0.0287493
925.209	0.0272844
925.343	0.0275896
925.477	0.0280168
925.611	0.0277117
925.745	0.0280168
925.879	0.0277117
926.014	0.0270402
926.148	0.0269181
926.282	0.028261
926.416	0.0276506
926.55	0.0272844
926.684	0.0275285
926.818	0.0280168
926.953	0.0276506
927.087	0.0274675
927.221	0.0279558
927.355	0.0288104
927.489	0.0285052
927.623	0.0278337
927.757	0.0284441
927.892	0.0273454
928.026	0.0279558
928.16	0.0272233
928.294	0.0272844
928.428	0.0274675
928.562	0.0274065
928.696	0.0282
928.831	0.0286883
928.965	0.0274675
929.099	0.0269181
929.233	0.0278337
929.367	0.0272844
929.501	0.0280779
929.635	0.0276506
929.769	0.0279558
929.904	0.0277117
930.038	0.0275285
930.172	0.028261
930.306	0.0279558
930.44	0.0283831
930.574	0.0274675
930.708	0.0280168
930.843	0.0272233
930.977	0.0273454
931.111	0.0272844
931.245	0.0278337
931.379	0.0273454
931.513	0.0275285
931.647	0.0275285
931.781	0.0272844
931.916	0.0284441
932.05	0.0275285
932.184	0.0280168
932.318	0.0282
932.452	0.0274675
932.586	0.0280168
932.72	0.0282
932.854	0.0278337
932.989	0.0273454
933.123	0.0277727
933.257	0.0277117
933.391	0.028322
933.525	0.0280168
933.659	0.0275896
933.793	0.0279558
933.927	0.028322
934.061	0.0280168
934.196	0.028261
934.33	0.0276506
934.464	0.0270402
934.598	0.0273454
934.732	0.0282
934.866	0.0280779
935	0.026674
935.134	0.0275896
935.269	0.0274065
935.403	0.0279558
935.537	0.0277117
935.671	0.028322
935.805	0.0273454
935.939	0.028261
936.073	0.0285052
936.207	0.0278337
936.341	0.0277727
936.476	0.0274065
936.61	0.0278948
936.744	0.0282
936.878	0.0281389
937.012	0.0280779
937.146	0.0278948
937.28	0.0275896
937.414	0.028322
937.548	0.0279558
937.683	0.0277117
937.817	0.0269792
937.951	0.0283831
938.085	0.0279558
938.219	0.0273454
938.353	0.0279558
938.487	0.0277727
938.621	0.0274675
938.755	0.0271013
938.889	0.0278948
939.024	0.0272844
939.158	0.0280168
939.292	0.0277727
939.426	0.0274675
939.56	0.0275896
939.694	0.0280168
939.828	0.0281389
939.962	0.0281389
940.096	0.0278337
940.231	0.028261
940.365	0.0277117
940.499	0.0280168
940.633	0.0278337
940.767	0.0271623
940.901	0.0285052
941.035	0.0277727
941.169	0.0289324
941.303	0.0277117
941.437	0.0278337
941.571	0.0281389
941.706	0.0278337
941.84	0.0280168
941.974	0.0287493
942.108	0.0277117
942.242	0.0278337
942.376	0.0278337
942.51	0.028261
942.644	0.0275896
942.778	0.0272844
942.912	0.0278948
943.047	0.0269181
943.181	0.0278337
943.315	0.0277117
943.449	0.0280779
943.583	0.0285662
943.717	0.0272233
943.851	0.0268571
943.985	0.0275285
944.119	0.0276506
944.253	0.0278337
944.387	0.0282
944.522	0.0270402
944.656	0.028322
944.79	0.0285052
944.924	0.0271623
945.058	0.0279558
945.192	0.0278337
945.326	0.0281389
945.46	0.0288104
945.594	0.0281389
945.728	0.0281389
945.862	0.0280168
945.996	0.0278337
946.131	0.0278337
946.265	0.0283831
946.399	0.0278337
946.533	0.0277117
946.667	0.0276506
946.801	0.0280779
946.935	0.0278337
947.069	0.0280779
947.203	0.0286272
947.337	0.0276506
947.471	0.0275896
947.605	0.0264909
947.739	0.0274065
947.874	0.0275896
948.008	0.0272233
948.142	0.028322
948.276	0.0284441
948.41	0.0282
948.544	0.0274675
948.678	0.0283831
948.812	0.0276506
948.946	0.0287493
949.08	0.0275285
949.214	0.0282
949.348	0.0275896
949.482	0.0275896
949.617	0.0269792
949.751	0.0272844
949.885	0.0273454
950.019	0.0275896
950.153	0.0277117
950.287	0.0276506
950.421	0.0281389
950.555	0.0277117
950.689	0.0272844
950.823	0.0277117
950.957	0.0277727
951.091	0.0276506
951.225	0.0277117
951.359	0.0270402
951.493	0.0277117
951.628	0.0278337
951.762	0.0275896
951.896	0.028322
952.03	0.026735
952.164	0.0276506
952.298	0.0277727
952.432	0.0269181
952.566	0.0274065
952.7	0.0280168
952.834	0.0275285
952.968	0.0278337
953.102	0.0273454
953.236	0.0277117
953.37	0.0278337
953.504	0.028322
953.639	0.0272844
953.773	0.0269792
953.907	0.0277117
954.041	0.0265519
954.175	0.0279558
954.309	0.0286883
954.443	0.0280779
954.577	0.028261
954.711	0.0281389
954.845	0.0272844
954.979	0.0274675
955.113	0.0273454
955.247	0.0279558
955.381	0.0270402
955.515	0.0275285
955.649	0.0271623
955.783	0.0281389
955.917	0.0280779
956.052	0.0280779
956.186	0.0279558
956.32	0.028322
956.454	0.0278948
956.588	0.0288104
956.722	0.0277117
956.856	0.0285052
956.99	0.0280779
957.124	0.0271013
957.258	0.0277727
957.392	0.0282
957.526	0.0279558
957.66	0.0278337
957.794	0.0278948
957.928	0.0276506
958.062	0.0277727
958.196	0.0281389
958.33	0.0273454
958.464	0.0278337
958.598	0.0273454
958.733	0.0286272
958.867	0.0272844
959.001	0.028322
959.135	0.0288104
959.269	0.0277117
959.403	0.0272233
959.537	0.0272844
959.671	0.0278948
959.805	0.0269792
959.939	0.0277117
960.073	0.0269792
960.207	0.0277117
960.341	0.0274065
960.475	0.0274065
960.609	0.0277117
960.743	0.0280779
960.877	0.0275896
961.011	0.0274675
961.145	0.028322
961.279	0.0271623
961.413	0.0285662
961.547	0.0276506
961.681	0.0270402
961.815	0.0275896
961.949	0.0274065
962.083	0.0265519
962.218	0.0281389
962.352	0.0288104
962.486	0.0280168
962.62	0.0271013
962.754	0.0277727
962.888	0.0286272
963.022	0.0275285
963.156	0.026674
963.29	0.0280779
963.424	0.0286272
963.558	0.0277117
963.692	0.0277117
963.826	0.0274675
963.96	0.0275896
964.094	0.0269181
964.228	0.0275285
964.362	0.0270402
964.496	0.0277117
964.63	0.026674
964.764	0.0278337
964.898	0.0280168
965.032	0.0279558
965.166	0.0275896
965.3	0.0275285
965.434	0.0278948
965.568	0.0276506
965.702	0.0276506
965.836	0.028261
965.97	0.0274675
966.104	0.0277117
966.238	0.028322
966.372	0.0281389
966.506	0.0269181
966.64	0.0278337
966.774	0.0277117
966.908	0.0285052
967.043	0.0279558
967.177	0.0276506
967.311	0.0276506
967.445	0.028261
967.579	0.0274675
967.713	0.0278337
967.847	0.0275896
967.981	0.0285052
968.115	0.0278337
968.249	0.0279558
968.383	0.0276506
968.517	0.0275285
968.651	0.0291155
968.785	0.0275896
968.919	0.0277117
969.053	0.0274675
969.187	0.0277727
969.321	0.0278337
969.455	0.0277727
969.589	0.0280168
969.723	0.0280168
969.857	0.0285662
969.991	0.0269181
970.125	0.0277117
970.259	0.0272844
970.393	0.0275896
970.527	0.0279558
970.661	0.0274675
970.795	0.0274675
970.929	0.0272844
971.063	0.0278337
971.197	0.0280168
971.331	0.0272233
971.465	0.0273454
971.599	0.0281389
971.733	0.0275285
971.867	0.0280779
972.001	0.0278337
972.135	0.0276506
972.269	0.0277117
972.403	0.028322
972.537	0.0278948
972.671	0.0275285
972.805	0.0273454
972.939	0.0284441
973.073	0.0284441
973.207	0.0278337
973.341	0.0279558
973.475	0.0277117
973.609	0.0271013
973.743	0.0278948
973.877	0.0276506
974.011	0.0284441
974.145	0.0278948
974.279	0.0273454
974.413	0.0269181
974.547	0.0278948
974.681	0.0277727
974.815	0.0287493
974.949	0.0274065
975.083	0.0273454
975.217	0.0284441
975.351	0.0275285
975.485	0.0277727
975.619	0.0278337
975.753	0.0278337
975.887	0.0279558
976.021	0.0275896
976.155	0.0274065
976.289	0.0274065
976.423	0.0278948
976.557	0.028322
976.691	0.0269792
976.825	0.0277117
976.959	0.0269181
977.093	0.0280779
977.227	0.028261
977.361	0.0277117
977.495	0.0275285
977.629	0.0271013
977.763	0.0280168
977.897	0.0276506
978.031	0.0283831
978.165	0.0288714
978.299	0.026674
978.433	0.0276506
978.567	0.0273454
978.701	0.0274675
978.835	0.0280168
978.969	0.0274065
979.103	0.028261
979.237	0.0278337
979.371	0.026735
979.505	0.0279558
979.639	0.0277117
979.773	0.0278337
979.907	0.0277727
980.041	0.0277117
980.175	0.0275896
980.308	0.0280779
980.442	0.0280168
980.576	0.0279558
980.71	0.0286883
980.844	0.0275285
980.978	0.0276506
981.112	0.0272233
981.246	0.028322
981.38	0.0275285
981.514	0.0274675
981.648	0.0275285
981.782	0.0275896
981.916	0.0278948
982.05	0.0279558
982.184	0.0278948
982.318	0.0274065
982.452	0.0281389
982.586	0.0270402
982.72	0.0280168
982.854	0.0277117
982.988	0.0283831
983.122	0.0274065
983.256	0.0271013
983.39	0.0291155
983.524	0.0280779
983.658	0.028322
983.792	0.0278337
983.926	0.0278337
984.06	0.0279558
984.194	0.0280168
984.328	0.0278337
984.462	0.0277727
984.596	0.0287493
984.73	0.0282
984.864	0.0275896
984.998	0.0276506
985.132	0.0277727
985.265	0.0275896
985.399	0.0281389
985.533	0.0275896
985.667	0.0279558
985.801	0.0279558
985.935	0.0285662
986.069	0.0279558
986.203	0.0274065
986.337	0.0277117
986.471	0.028322
986.605	0.028322
986.739	0.0280779
986.873	0.0280779
987.007	0.028261
987.141	0.0285052
987.275	0.0278337
987.409	0.0269181
987.543	0.0271013
987.677	0.0280168
987.811	0.0269792
987.945	0.0270402
988.079	0.0277727
988.213	0.0284441
988.347	0.0271623
988.481	0.0274065
988.614	0.0280168
988.748	0.026735
988.882	0.0274065
989.016	0.0278948
989.15	0.0269792
989.284	0.0280168
989.418	0.0276506
989.552	0.0270402
989.686	0.0268571
989.82	0.0280779
989.954	0.0278337
990.088	0.0276506
990.222	0.0268571
990.356	0.0275896
990.49	0.0280779
990.624	0.0274065
990.758	0.0272844
990.892	0.0272233
991.026	0.0283831
991.16	0.0283831
991.294	0.0278948
991.427	0.0270402
991.561	0.0273454
991.695	0.0280779
991.829	0.0278337
991.963	0.0267961
992.097	0.0272233
992.231	0.0281389
992.365	0.0283831
992.499	0.0278337
992.633	0.0271013
992.767	0.0268571
992.901	0.0278948
993.035	0.0275285
993.169	0.0284441
993.303	0.0276506
993.437	0.0280168
993.571	0.0276506
993.704	0.0275285
993.838	0.0292376
993.972	0.0285052
994.106	0.0277727
994.24	0.0278948
994.374	0.0288714
994.508	0.0275896
994.642	0.0281389
994.776	0.0280779
994.91	0.0279558
995.044	0.0275285
995.178	0.0282
995.312	0.0280168
995.446	0.0275896
995.58	0.0274065
995.714	0.0282
995.847	0.0276506
995.981	0.0271623
996.115	0.0275285
996.249	0.0275285
996.383	0.0278948
996.517	0.0272233
996.651	0.028322
996.785	0.0272233
996.919	0.0281389
997.053	0.0277117
997.187	0.0280779
997.321	0.0277727
997.455	0.0284441
997.589	0.0282
997.722	0.026674
997.856	0.0273454
997.99	0.0279558
998.124	0.0275896
998.258	0.0275896
998.392	0.026735
998.526	0.0275896
998.66	0.0280779
998.794	0.0278337
998.928	0.0270402
999.062	0.0279558
999.196	0.0273454
999.33	0.0276506
999.464	0.0285052
999.597	0.0278948
999.731	0.0271013
999.865	0.0278337
999.999	0.0281389
1000.13	0.0274675
1000.27	0.0282
1000.4	0.0277727
1000.53	0.0275285
1000.67	0.0277117
1000.8	0.028322
1000.94	0.0279558
1001.07	0.0275285
1001.2	0.0273454
1001.34	0.0277117
1001.47	0.028261
1001.61	0.028322
1001.74	0.0280779
1001.87	0.028322
1002.01	0.028261
1002.14	0.0274065
1002.28	0.0280779
1002.41	0.0279558
1002.54	0.0281389
1002.68	0.0277117
1002.81	0.0278337
1002.95	0.0274675
1003.08	0.0274065
1003.21	0.0277117
1003.35	0.0277727
1003.48	0.0277117
1003.61	0.0279558
1003.75	0.0289324
1003.88	0.0275285
1004.02	0.0278337
1004.15	0.0277727
1004.28	0.0271623
1004.42	0.0280779
1004.55	0.0275896
1004.69	0.0282
1004.82	0.0274675
1004.95	0.0273454
1005.09	0.0275896
1005.22	0.0274065
1005.36	0.0273454
1005.49	0.0278948
1005.62	0.0282
1005.76	0.0285052
1005.89	0.0270402
1006.03	0.0277727
1006.16	0.0278948
1006.29	0.0271623
1006.43	0.0279558
1006.56	0.0279558
1006.69	0.0276506
1006.83	0.0280779
1006.96	0.028261
1007.1	0.0275896
1007.23	0.0275896
1007.36	0.0271623
1007.5	0.0282
1007.63	0.0277117
1007.77	0.0272844
1007.9	0.0272844
1008.03	0.0275285
1008.17	0.0280779
1008.3	0.0274675
1008.44	0.0274675
1008.57	0.0278948
1008.7	0.0273454
1008.84	0.0274675
1008.97	0.0278948
1009.1	0.0274065
1009.24	0.0278948
1009.37	0.0288714
1009.51	0.0272233
1009.64	0.0268571
1009.77	0.0272844
1009.91	0.0278337
1010.04	0.028261
1010.18	0.0281389
1010.31	0.0276506
1010.44	0.0278948
1010.58	0.0277727
1010.71	0.0275896
1010.85	0.0280168
1010.98	0.0271623
1011.11	0.0276506
1011.25	0.0279558
1011.38	0.0275285
1011.51	0.0277727
1011.65	0.0274675
1011.78	0.0271623
1011.92	0.0277117
1012.05	0.0274065
1012.18	0.0271013
1012.32	0.0275896
1012.45	0.0280168
1012.59	0.0271623
1012.72	0.0282
1012.85	0.0276506
1012.99	0.0274675
1013.12	0.0272844
1013.26	0.0271623
1013.39	0.0280168
1013.52	0.0283831
1013.66	0.0279558
1013.79	0.0273454
1013.92	0.0281389
1014.06	0.0279558
1014.19	0.0275285
1014.33	0.0278337
1014.46	0.0272844
1014.59	0.0280168
1014.73	0.0282
1014.86	0.0278948
1015	0.0280168
1015.13	0.0277117
1015.26	0.0280779
1015.4	0.028322
1015.53	0.028261
1015.67	0.0280168
1015.8	0.0278948
1015.93	0.0270402
1016.07	0.0280168
1016.2	0.0274065
1016.33	0.0271013
1016.47	0.0278948
1016.6	0.0278337
1016.74	0.0268571
1016.87	0.0274675
1017	0.0283831
1017.14	0.0272233
1017.27	0.0277727
1017.41	0.0285662
1017.54	0.0276506
1017.67	0.0272233
1017.81	0.0288714
1017.94	0.0273454
1018.07	0.0272233
1018.21	0.0274675
1018.34	0.0278948
1018.48	0.0285052
1018.61	0.0277117
1018.74	0.028261
1018.88	0.0271013
1019.01	0.0272233
1019.15	0.0279558
1019.28	0.0274065
1019.41	0.0274065
1019.55	0.0288104
1019.68	0.0277727
1019.82	0.0273454
1019.95	0.0281389
1020.08	0.0275285
1020.22	0.0274675
1020.35	0.0272844
1020.48	0.0272844
1020.62	0.0271013
1020.75	0.0271623
1020.89	0.0279558
1021.02	0.0272844
1021.15	0.0285662
1021.29	0.0285662
1021.42	0.0272844
1021.56	0.0277117
1021.69	0.0272844
1021.82	0.0280168
1021.96	0.0277727
1022.09	0.0278337
1022.22	0.0273454
1022.36	0.0274675
1022.49	0.0280168
1022.63	0.0272844
1022.76	0.0277117
1022.89	0.0271623
1023.03	0.0280779
1023.16	0.0280168
1023.3	0.028261
1023.43	0.0279558
1023.56	0.0289935
1023.7	0.0278948
1023.83	0.0274675
1023.96	0.0281389
1024.1	0.0275285
1024.23	0.0275896
1024.37	0.0276506
1024.5	0.0263078
1024.63	0.0269181
1024.77	0.0277727
1024.9	0.0279558
1025.04	0.0282
1025.17	0.0276506
1025.3	0.0274675
1025.44	0.0278337
1025.57	0.0277117
1025.7	0.0285662
1025.84	0.0271623
1025.97	0.0281389
1026.11	0.0267961
1026.24	0.0274065
1026.37	0.028261
1026.51	0.0278948
1026.64	0.028261
1026.78	0.0274675
1026.91	0.0267961
1027.04	0.0274675
1027.18	0.0280168
1027.31	0.0275896
1027.44	0.0280779
1027.58	0.0284441
1027.71	0.0283831
1027.85	0.0280168
1027.98	0.0271013
1028.11	0.0275285
1028.25	0.0274675
1028.38	0.0270402
1028.52	0.0283831
1028.65	0.0281389
1028.78	0.0280168
1028.92	0.0278337
1029.05	0.0271623
1029.18	0.0268571
1029.32	0.0278337
1029.45	0.0283831
1029.59	0.0277117
1029.72	0.0277117
1029.85	0.0273454
1029.99	0.0278337
1030.12	0.028261
1030.26	0.0274065
1030.39	0.0281389
1030.52	0.028322
1030.66	0.0274675
1030.79	0.0277727
1030.92	0.0278948
1031.06	0.0277727
1031.19	0.0272233
1031.33	0.0280168
1031.46	0.0271623
1031.59	0.0290545
1031.73	0.028261
1031.86	0.0268571
1031.99	0.0278337
1032.13	0.0278948
1032.26	0.0273454
1032.4	0.0271623
1032.53	0.0282
1032.66	0.0274065
1032.8	0.0278948
1032.93	0.0278948
1033.07	0.0275896
1033.2	0.0276506
1033.33	0.0274065
1033.47	0.0273454
1033.6	0.0273454
1033.73	0.0277727
1033.87	0.028261
1034	0.0277117
1034.14	0.0278948
1034.27	0.0288104
1034.4	0.0277727
1034.54	0.0278337
1034.67	0.0282
1034.81	0.0270402
1034.94	0.0279558
1035.07	0.0280779
1035.21	0.0278948
1035.34	0.0271623
1035.47	0.028261
1035.61	0.0280779
1035.74	0.0274675
1035.88	0.0272233
1036.01	0.0284441
1036.14	0.0272233
1036.28	0.0275896
1036.41	0.0269181
1036.54	0.0277117
1036.68	0.0277727
1036.81	0.0276506
1036.95	0.0285052
1037.08	0.0278948
1037.21	0.0276506
1037.35	0.0275285
1037.48	0.0280168
1037.62	0.0272844
1037.75	0.0277117
1037.88	0.028322
1038.02	0.0271623
1038.15	0.0273454
1038.28	0.0271623
1038.42	0.0278337
1038.55	0.0279558
1038.69	0.0275896
1038.82	0.0271013
1038.95	0.0281389
1039.09	0.0278948
1039.22	0.0281389
1039.35	0.0277727
1039.49	0.0282
1039.62	0.0283831
1039.76	0.0280779
1039.89	0.0286272
1040.02	0.0277117
1040.16	0.0278948
1040.29	0.0273454
1040.43	0.0268571
1040.56	0.0272233
1040.69	0.0278337
1040.83	0.0272844
1040.96	0.028261
1041.09	0.0276506
1041.23	0.0278337
1041.36	0.0280779
1041.5	0.0277117
1041.63	0.0286883
1041.76	0.0283831
1041.9	0.0272844
1042.03	0.0274675
1042.16	0.0272844
1042.3	0.0275285
1042.43	0.0270402
1042.57	0.0269792
1042.7	0.0271623
1042.83	0.0281389
1042.97	0.0278337
1043.1	0.0274065
1043.23	0.0275896
1043.37	0.0278948
1043.5	0.0277727
1043.64	0.0275285
1043.77	0.028261
1043.9	0.028261
1044.04	0.0277727
1044.17	0.0284441
1044.31	0.0267961
1044.44	0.0275285
1044.57	0.0285662
1044.71	0.0274065
1044.84	0.0278948
1044.97	0.0281389
1045.11	0.0274065
1045.24	0.0271623
1045.38	0.0276506
1045.51	0.0279558
1045.64	0.0276506
1045.78	0.0282
1045.91	0.0285662
1046.04	0.0272844
1046.18	0.0275285
1046.31	0.028261
1046.45	0.0283831
1046.58	0.0274065
1046.71	0.0278948
1046.85	0.0271623
1046.98	0.0275896
1047.11	0.0274065
1047.25	0.0275285
1047.38	0.0283831
1047.52	0.0275285
1047.65	0.0274065
1047.78	0.0277117
1047.92	0.0283831
1048.05	0.0276506
1048.18	0.0278337
1048.32	0.0272844
1048.45	0.0267961
1048.59	0.0274065
1048.72	0.0271623
1048.85	0.028322
1048.99	0.0282
1049.12	0.0271623
1049.25	0.0268571
1049.39	0.0280168
1049.52	0.0269181
1049.66	0.0278337
1049.79	0.0287493
1049.92	0.0275285
1050.06	0.0282
1050.19	0.0271623
1050.33	0.0279558
1050.46	0.0277727
1050.59	0.0278948
1050.73	0.0271623
1050.86	0.0278337
1050.99	0.0275285
1051.13	0.0276506
1051.26	0.0275285
1051.4	0.0278337
1051.53	0.0279558
1051.66	0.0274065
1051.8	0.0278337
1051.93	0.0270402
1052.06	0.0275285
1052.2	0.0267961
1052.33	0.0285662
1052.47	0.0274675
1052.6	0.0277727
1052.73	0.0271623
1052.87	0.0277117
1053	0.028322
1053.13	0.0288104
1053.27	0.0272844
1053.4	0.0277727
1053.54	0.0277727
1053.67	0.0285662
1053.8	0.0283831
1053.94	0.0271623
1054.07	0.0278337
1054.2	0.0262467
1054.34	0.028322
1054.47	0.028261
1054.61	0.0276506
1054.74	0.0275285
1054.87	0.0275285
1055.01	0.0277727
1055.14	0.0274675
1055.27	0.0283831
1055.41	0.0272233
1055.54	0.0274675
1055.68	0.0277117
1055.81	0.0283831
1055.94	0.0280168
1056.08	0.0279558
1056.21	0.0269181
1056.34	0.0283831
1056.48	0.0279558
1056.61	0.0285052
1056.75	0.0278948
1056.88	0.0277727
1057.01	0.0273454
1057.15	0.0277117
1057.28	0.0275285
1057.41	0.0285662
1057.55	0.0277117
1057.68	0.0278948
1057.82	0.0278948
1057.95	0.0277117
1058.08	0.0282
1058.22	0.0278337
1058.35	0.0278337
1058.48	0.0274065
1058.62	0.0278337
1058.75	0.0271013
1058.89	0.0272844
1059.02	0.028322
1059.15	0.0280168
1059.29	0.0278337
1059.42	0.0276506
1059.55	0.0279558
1059.69	0.0277117
1059.82	0.0279558
1059.96	0.0277117
1060.09	0.0280779
1060.22	0.0271013
1060.36	0.028322
1060.49	0.0282
1060.62	0.0277117
1060.76	0.0270402
1060.89	0.0277117
1061.03	0.0284441
1061.16	0.0285662
1061.29	0.0274065
1061.43	0.0274675
1061.56	0.0273454
1061.69	0.0277117
1061.83	0.0280779
1061.96	0.0285662
1062.1	0.0280168
1062.23	0.0278948
1062.36	0.0280779
1062.5	0.0278337
1062.63	0.0275896
1062.76	0.0280779
1062.9	0.0279558
1063.03	0.0286272
1063.17	0.0272844
1063.3	0.0278337
1063.43	0.0271623
1063.57	0.0274065
1063.7	0.0280779
1063.83	0.0275285
1063.97	0.0280168
1064.1	0.0273454
1064.23	0.028261
1064.37	0.0278337
1064.5	0.0276506
1064.64	0.0270402
1064.77	0.0280779
1064.9	0.0277117
1065.04	0.0276506
1065.17	0.0271013
1065.3	0.0272844
1065.44	0.0271013
1065.57	0.0269792
1065.71	0.0277727
1065.84	0.0278337
1065.97	0.0285052
1066.11	0.0274065
1066.24	0.0280779
1066.37	0.0277117
1066.51	0.028261
1066.64	0.0278337
1066.78	0.0290545
1066.91	0.0271623
1067.04	0.0282
1067.18	0.0289324
1067.31	0.0281389
1067.44	0.0274675
1067.58	0.0276506
1067.71	0.0286883
1067.85	0.0275285
1067.98	0.0280779
1068.11	0.0281389
1068.25	0.0280168
1068.38	0.0286883
1068.51	0.028322
1068.65	0.0279558
1068.78	0.0286883
1068.92	0.0274675
1069.05	0.0282
1069.18	0.0279558
1069.32	0.028322
1069.45	0.0269181
1069.58	0.0276506
1069.72	0.0270402
1069.85	0.0274065
1069.98	0.0278337
1070.12	0.0274675
1070.25	0.0284441
1070.39	0.0278337
1070.52	0.0275896
1070.65	0.0272233
1070.79	0.0271623
1070.92	0.0280168
1071.05	0.0288714
1071.19	0.0278337
1071.32	0.0278337
1071.46	0.0275285
1071.59	0.0294207
1071.72	0.0276506
1071.86	0.0276506
1071.99	0.0279558
1072.12	0.0284441
1072.26	0.0272844
1072.39	0.0273454
1072.53	0.0282
1072.66	0.0279558
1072.79	0.0279558
1072.93	0.0276506
1073.06	0.0285052
1073.19	0.0283831
1073.33	0.0272844
1073.46	0.0278948
1073.59	0.028322
1073.73	0.0271623
1073.86	0.0278337
1074	0.0274065
1074.13	0.0274675
1074.26	0.0276506
1074.4	0.0269792
1074.53	0.0280779
1074.66	0.0278948
1074.8	0.028261
1074.93	0.0277117
1075.07	0.0271623
1075.2	0.0275896
1075.33	0.0274065
1075.47	0.0280779
1075.6	0.0280168
1075.73	0.026735
1075.87	0.0280168
1076	0.0277727
1076.14	0.0279558
1076.27	0.0274065
1076.4	0.0274675
1076.54	0.0277117
1076.67	0.0279558
1076.8	0.0267961
1076.94	0.0275896
1077.07	0.0274675
1077.2	0.0269792
1077.34	0.0279558
1077.47	0.0269181
1077.61	0.0283831
1077.74	0.0286883
1077.87	0.0280779
1078.01	0.0278337
1078.14	0.0278337
1078.27	0.0278948
1078.41	0.0273454
1078.54	0.026735
1078.68	0.0279558
1078.81	0.0275285
1078.94	0.0270402
1079.08	0.0277117
1079.21	0.0282
1079.34	0.028261
1079.48	0.0283831
1079.61	0.0286883
1079.74	0.0281389
1079.88	0.0272233
1080.01	0.0270402
1080.15	0.0280168
1080.28	0.0278337
1080.41	0.0280779
1080.55	0.0277117
1080.68	0.0275285
1080.81	0.0279558
1080.95	0.0283831
1081.08	0.0268571
1081.22	0.0277727
1081.35	0.0274065
1081.48	0.0271013
1081.62	0.0282
1081.75	0.0269792
1081.88	0.0281389
1082.02	0.0278948
1082.15	0.0276506
1082.28	0.0290545
1082.42	0.0279558
1082.55	0.0281389
1082.69	0.0280779
1082.82	0.0274675
1082.95	0.0273454
1083.09	0.0274065
1083.22	0.0272844
1083.35	0.0291155
1083.49	0.0282
1083.62	0.0278337
1083.75	0.0275285
1083.89	0.0273454
1084.02	0.0279558
1084.16	0.0277117
1084.29	0.0272844
1084.42	0.0273454
1084.56	0.0275285
1084.69	0.0275896
1084.82	0.0277117
1084.96	0.0280779
1085.09	0.0278948
1085.23	0.028322
1085.36	0.0272844
1085.49	0.0274675
1085.63	0.0287493
1085.76	0.0268571
1085.89	0.0270402
1086.03	0.028261
1086.16	0.0280168
1086.29	0.0275285
1086.43	0.0274675
1086.56	0.0277727
1086.7	0.0279558
1086.83	0.0274675
1086.96	0.0278337
1087.1	0.0278337
1087.23	0.0278948
1087.36	0.0284441
1087.5	0.0282
1087.63	0.0273454
1087.76	0.0272844
1087.9	0.0274065
1088.03	0.028261
1088.17	0.0281389
1088.3	0.0273454
1088.43	0.0282
1088.57	0.0279558
1088.7	0.0279558
1088.83	0.0277117
1088.97	0.0280779
1089.1	0.028261
1089.24	0.0282
1089.37	0.0277727
1089.5	0.0281389
1089.64	0.0277727
1089.77	0.0286883
1089.9	0.026613
1090.04	0.0275896
1090.17	0.0283831
1090.3	0.0275896
1090.44	0.0287493
1090.57	0.0282
1090.71	0.0277727
1090.84	0.0279558
1090.97	0.0280779
1091.11	0.0279558
1091.24	0.0277117
1091.37	0.0274675
1091.51	0.0278948
1091.64	0.0277117
1091.77	0.0275896
1091.91	0.0278948
1092.04	0.0280168
1092.18	0.0270402
1092.31	0.028322
1092.44	0.0277727
1092.58	0.0271623
1092.71	0.0277727
1092.84	0.0272233
1092.98	0.0278337
1093.11	0.0281389
1093.24	0.0279558
1093.38	0.0275896
1093.51	0.0284441
1093.65	0.0270402
1093.78	0.0278337
1093.91	0.0272844
1094.05	0.0272233
1094.18	0.0277117
1094.31	0.0278337
1094.45	0.0269181
1094.58	0.0280779
1094.71	0.0274065
1094.85	0.0282
1094.98	0.0273454
1095.12	0.0281389
1095.25	0.0277117
1095.38	0.0276506
1095.52	0.0281389
1095.65	0.0276506
1095.78	0.0283831
1095.92	0.0274675
1096.05	0.026613
1096.18	0.0276506
1096.32	0.0275896
1096.45	0.0280168
1096.59	0.0274065
1096.72	0.0280168
1096.85	0.028261
1096.99	0.028322
1097.12	0.0280779
1097.25	0.0274675
1097.39	0.0276506
1097.52	0.0286883
1097.65	0.0272233
1097.79	0.0280168
1097.92	0.0286272
1098.06	0.0283831
1098.19	0.0275896
1098.32	0.0275896
1098.46	0.026674
1098.59	0.0286272
1098.72	0.028322
1098.86	0.0280779
1098.99	0.028261
1099.12	0.0277727
1099.26	0.0269792
1099.39	0.0281389
1099.53	0.028322
1099.66	0.0278337
1099.79	0.0275285
1099.93	0.0281389
1100.06	0.0285052
1100.19	0.0281389
1100.33	0.0272844
1100.46	0.0272233
1100.59	0.0276506
1100.73	0.0280168
1100.86	0.0272844
1100.99	0.0289324
1101.13	0.0281389
1101.26	0.0277727
1101.4	0.0281389
1101.53	0.0285662
1101.66	0.0278948
1101.8	0.0278337
1101.93	0.028322
1102.06	0.0285052
1102.2	0.0278337
1102.33	0.0270402
1102.46	0.026613
1102.6	0.0275896
1102.73	0.0277727
1102.87	0.0275896
1103	0.0278337
1103.13	0.0286272
1103.27	0.0278948
1103.4	0.0285662
1103.53	0.0275285
1103.67	0.0277727
1103.8	0.0274065
1103.93	0.028261
1104.07	0.0269792
1104.2	0.0277117
1104.34	0.0275896
1104.47	0.0275896
1104.6	0.0275285
1104.74	0.0281389
1104.87	0.0278948
1105	0.0274675
1105.14	0.0285052
1105.27	0.0277117
1105.4	0.0270402
1105.54	0.0274675
1105.67	0.0288714
1105.8	0.0285662
1105.94	0.0272844
1106.07	0.0285662
1106.21	0.0280779
1106.34	0.0277727
1106.47	0.0275285
1106.61	0.0273454
1106.74	0.0280779
1106.87	0.0280779
1107.01	0.0277727
1107.14	0.0278337
1107.27	0.0280168
1107.41	0.0273454
1107.54	0.0277117

