Source: Spectrum Viewer

Chart: Pulse Spectrum

Series: 
Wavelength (nm)	S (a.u.)
617.638	0.0283831
617.773	0.0272844
617.908	0.0276506
618.043	0.0276506
618.178	0.0277117
618.313	0.0280168
618.448	0.0277117
618.583	0.0288104
618.718	0.0271013
618.853	0.0283831
618.988	0.0280168
619.123	0.0272844
619.258	0.0279558
619.394	0.0274065
619.529	0.0276506
619.664	0.0272844
619.799	0.0271013
619.934	0.0283831
620.069	0.0275896
620.204	0.028261
620.339	0.0278337
620.474	0.0271623
620.609	0.0279558
620.744	0.0282
620.879	0.0270402
621.014	0.0274065
621.149	0.0276506
621.284	0.0277727
621.419	0.0279558
621.554	0.0272844
621.689	0.0274675
621.825	0.0281389
621.96	0.0272233
622.095	0.0275896
622.23	0.0275896
622.365	0.0276506
622.5	0.0272844
622.635	0.0268571
622.77	0.0264909
622.905	0.0279558
623.04	0.0280168
623.175	0.0279558
623.31	0.0274065
623.445	0.0274065
623.58	0.0277117
623.715	0.0277117
623.85	0.0271623
623.985	0.0284441
624.12	0.0272233
624.255	0.0280779
624.39	0.0278337
624.525	0.0277727
624.661	0.0285052
624.796	0.0272844
624.931	0.0279558
625.066	0.0278948
625.201	0.0279558
625.336	0.028261
625.471	0.0280779
625.606	0.0275285
625.741	0.028261
625.876	0.0276506
626.011	0.0280779
626.146	0.0273454
626.281	0.0279558
626.416	0.0274065
626.551	0.028322
626.686	0.0272844
626.821	0.0282
626.956	0.0283831
627.091	0.0265519
627.226	0.0285662
627.361	0.0277117
627.496	0.0275896
627.631	0.0274675
627.766	0.0281389
627.901	0.028322
628.036	0.0279558
628.171	0.0279558
628.307	0.0276506
628.442	0.0271623
628.577	0.0277727
628.712	0.028322
628.847	0.0277727
628.982	0.0271013
629.117	0.0279558
629.252	0.0279558
629.387	0.0278337
629.522	0.0271623
629.657	0.0279558
629.792	0.0277727
629.927	0.0284441
630.062	0.0277117
630.197	0.0278337
630.332	0.0284441
630.467	0.0282
630.602	0.0280779
630.737	0.0273454
630.872	0.0276506
631.007	0.0275896
631.142	0.0282
631.277	0.0274065
631.412	0.0275896
631.547	0.0285052
631.682	0.0277117
631.817	0.0272844
631.952	0.0275896
632.087	0.0280168
632.222	0.0272844
632.357	0.0277117
632.492	0.0274675
632.627	0.0280779
632.762	0.0274065
632.897	0.0273454
633.032	0.028261
633.167	0.0279558
633.302	0.0272233
633.437	0.028261
633.572	0.0267961
633.707	0.0280168
633.842	0.0277727
633.978	0.0282
634.113	0.0284441
634.248	0.0277117
634.383	0.028261
634.518	0.0277727
634.653	0.0271013
634.788	0.0278337
634.923	0.0283831
635.058	0.0275285
635.193	0.0283831
635.328	0.0273454
635.463	0.028261
635.598	0.0280168
635.733	0.0285662
635.868	0.0280779
636.003	0.0275896
636.138	0.0280168
636.273	0.028322
636.408	0.0274065
636.543	0.0274675
636.678	0.0279558
636.813	0.0286272
636.948	0.0280779
637.083	0.0278337
637.218	0.0271623
637.353	0.0281389
637.488	0.0277117
637.623	0.0279558
637.758	0.0278337
637.893	0.0280168
638.028	0.0272233
638.163	0.0274675
638.298	0.0278337
638.433	0.0282
638.568	0.0275896
638.703	0.0278337
638.838	0.0276506
638.973	0.0278948
639.108	0.0271623
639.243	0.0277727
639.378	0.0277117
639.513	0.0288104
639.648	0.0274065
639.783	0.0280168
639.918	0.0277727
640.053	0.0284441
640.188	0.0278948
640.323	0.0282
640.458	0.0276506
640.593	0.0278337
640.728	0.0274065
640.863	0.0268571
640.998	0.028261
641.133	0.0277117
641.268	0.0285052
641.403	0.0284441
641.538	0.0277727
641.673	0.0280168
641.808	0.0277117
641.943	0.0278948
642.078	0.0279558
642.213	0.0271013
642.348	0.0278337
642.483	0.0275896
642.618	0.0271013
642.753	0.0278337
642.888	0.0271623
643.023	0.0272844
643.158	0.0284441
643.293	0.0274675
643.428	0.0274675
643.563	0.0275285
643.698	0.0279558
643.833	0.0275896
643.968	0.0285052
644.103	0.0277727
644.237	0.0274675
644.372	0.0274065
644.507	0.028261
644.642	0.0264909
644.777	0.0282
644.912	0.0280168
645.047	0.0274065
645.182	0.0286272
645.317	0.0285052
645.452	0.0276506
645.587	0.028322
645.722	0.0275285
645.857	0.0278948
645.992	0.0273454
646.127	0.0273454
646.262	0.0272233
646.397	0.0275285
646.532	0.0272844
646.667	0.0281389
646.802	0.0285052
646.937	0.0275285
647.072	0.0275896
647.207	0.0274065
647.342	0.0278337
647.477	0.0280779
647.612	0.0277117
647.747	0.0275896
647.882	0.0280168
648.017	0.0288714
648.152	0.0284441
648.287	0.0276506
648.422	0.0273454
648.557	0.028261
648.692	0.0276506
648.827	0.0277727
648.962	0.0276506
649.097	0.0284441
649.232	0.0287493
649.367	0.0278337
649.502	0.0272233
649.637	0.0275285
649.772	0.0275285
649.906	0.0274675
650.041	0.0274065
650.176	0.0278948
650.311	0.0278337
650.446	0.0274065
650.581	0.0270402
650.716	0.0278948
650.851	0.0271013
650.986	0.0276506
651.121	0.0276506
651.256	0.0277117
651.391	0.0277117
651.526	0.0276506
651.661	0.028322
651.796	0.0279558
651.931	0.0275285
652.066	0.0271623
652.201	0.0281389
652.336	0.0280168
652.471	0.0275285
652.606	0.0278337
652.741	0.0275285
652.876	0.0273454
653.011	0.0274065
653.146	0.0274065
653.281	0.0284441
653.415	0.0277727
653.55	0.0278337
653.685	0.0283831
653.82	0.0272844
653.955	0.0272844
654.09	0.0281389
654.225	0.0278337
654.36	0.0278337
654.495	0.0286883
654.63	0.0283831
654.765	0.0272844
654.9	0.0275896
655.035	0.0269792
655.17	0.0278337
655.305	0.0274675
655.44	0.0274065
655.575	0.0273454
655.71	0.0280168
655.845	0.0279558
655.98	0.0282
656.115	0.0277727
656.25	0.0286272
656.384	0.0274065
656.519	0.0274675
656.654	0.0276506
656.789	0.028322
656.924	0.0287493
657.059	0.0278948
657.194	0.0273454
657.329	0.0285052
657.464	0.0277727
657.599	0.0278337
657.734	0.0278337
657.869	0.028261
658.004	0.0280168
658.139	0.0277727
658.274	0.0272233
658.409	0.0274065
658.544	0.0274065
658.679	0.0274675
658.813	0.0271623
658.948	0.0275285
659.083	0.0281389
659.218	0.0284441
659.353	0.0275285
659.488	0.0271013
659.623	0.0282
659.758	0.0280779
659.893	0.0275896
660.028	0.028322
660.163	0.0275896
660.298	0.0284441
660.433	0.0260026
660.568	0.0282
660.703	0.0274675
660.838	0.0278948
660.972	0.0284441
661.107	0.0280168
661.242	0.0272844
661.377	0.028261
661.512	0.0285052
661.647	0.0280779
661.782	0.0280779
661.917	0.0277117
662.052	0.0276506
662.187	0.0269181
662.322	0.0278337
662.457	0.0277727
662.592	0.026674
662.727	0.0280168
662.862	0.0273454
662.996	0.0288714
663.131	0.0277117
663.266	0.0274675
663.401	0.0278337
663.536	0.0278337
663.671	0.0276506
663.806	0.0280168
663.941	0.0280779
664.076	0.0277117
664.211	0.0283831
664.346	0.0278948
664.481	0.0271013
664.616	0.0279558
664.75	0.028261
664.885	0.0275896
665.02	0.0282
665.155	0.0276506
665.29	0.0277727
665.425	0.0274065
665.56	0.0285052
665.695	0.0277117
665.83	0.0277727
665.965	0.0277117
666.1	0.0267961
666.235	0.0272233
666.37	0.0281389
666.504	0.0280168
666.639	0.0272844
666.774	0.0278948
666.909	0.0278948
667.044	0.0275896
667.179	0.028322
667.314	0.0278948
667.449	0.0277117
667.584	0.028322
667.719	0.0280168
667.854	0.0285662
667.989	0.0269792
668.123	0.0278337
668.258	0.0281389
668.393	0.0271623
668.528	0.0282
668.663	0.0278948
668.798	0.0278948
668.933	0.0280779
669.068	0.0278337
669.203	0.0271623
669.338	0.0277727
669.473	0.0283831
669.607	0.0282
669.742	0.0275896
669.877	0.0277117
670.012	0.0287493
670.147	0.0272844
670.282	0.0276506
670.417	0.0280779
670.552	0.0278337
670.687	0.0276506
670.822	0.0277727
670.957	0.0275285
671.091	0.0275285
671.226	0.0275896
671.361	0.0282
671.496	0.0276506
671.631	0.0271013
671.766	0.0277117
671.901	0.0284441
672.036	0.0285052
672.171	0.0272844
672.306	0.0281389
672.44	0.0280779
672.575	0.0274065
672.71	0.0274675
672.845	0.0274065
672.98	0.0277727
673.115	0.0271013
673.25	0.0278948
673.385	0.0272844
673.52	0.0278948
673.655	0.0274675
673.789	0.0282
673.924	0.0278337
674.059	0.0276506
674.194	0.0286883
674.329	0.0278337
674.464	0.0272844
674.599	0.0278337
674.734	0.0270402
674.869	0.0271013
675.003	0.0278337
675.138	0.0276506
675.273	0.0273454
675.408	0.0278337
675.543	0.0275285
675.678	0.028322
675.813	0.0274675
675.948	0.0275285
676.083	0.0274675
676.217	0.0275285
676.352	0.0277117
676.487	0.0282
676.622	0.0280168
676.757	0.0280168
676.892	0.0278337
677.027	0.0277117
677.162	0.0285052
677.297	0.0277727
677.431	0.0276506
677.566	0.0278337
677.701	0.0273454
677.836	0.0278948
677.971	0.0277727
678.106	0.0275285
678.241	0.0270402
678.376	0.028261
678.511	0.0277727
678.645	0.0278337
678.78	0.0274675
678.915	0.0278337
679.05	0.0280779
679.185	0.0276506
679.32	0.0280779
679.455	0.0282
679.59	0.0285662
679.724	0.0275285
679.859	0.0271013
679.994	0.0278337
680.129	0.0285052
680.264	0.0282
680.399	0.0280779
680.534	0.0276506
680.669	0.0274065
680.803	0.0276506
680.938	0.0274065
681.073	0.0286883
681.208	0.0274675
681.343	0.0285052
681.478	0.0280168
681.613	0.0274065
681.748	0.0273454
681.882	0.0280779
682.017	0.0272233
682.152	0.0278337
682.287	0.0278948
682.422	0.0278948
682.557	0.0282
682.692	0.0283831
682.827	0.0280168
682.961	0.028261
683.096	0.0276506
683.231	0.0286272
683.366	0.0272844
683.501	0.0280168
683.636	0.0275285
683.771	0.0284441
683.906	0.028261
684.04	0.0269181
684.175	0.0280779
684.31	0.0279558
684.445	0.0281389
684.58	0.0286883
684.715	0.0269792
684.85	0.0276506
684.984	0.0276506
685.119	0.0278337
685.254	0.0271013
685.389	0.0275285
685.524	0.0271623
685.659	0.0280168
685.794	0.0283831
685.928	0.0272844
686.063	0.0285052
686.198	0.0278948
686.333	0.0273454
686.468	0.028261
686.603	0.0277727
686.738	0.0278948
686.872	0.0273454
687.007	0.028261
687.142	0.0275896
687.277	0.0275896
687.412	0.0269181
687.547	0.0283831
687.682	0.0279558
687.816	0.0278948
687.951	0.0272844
688.086	0.0277727
688.221	0.0277117
688.356	0.0280168
688.491	0.0280779
688.626	0.0276506
688.76	0.0279558
688.895	0.0287493
689.03	0.0283831
689.165	0.0280168
689.3	0.0276506
689.435	0.0275896
689.57	0.0269792
689.704	0.0273454
689.839	0.0282
689.974	0.0277117
690.109	0.0278337
690.244	0.0274065
690.379	0.0277117
690.513	0.028261
690.648	0.0272233
690.783	0.0279558
690.918	0.0276506
691.053	0.0285052
691.188	0.0277727
691.323	0.0274065
691.457	0.0275285
691.592	0.0286883
691.727	0.0281389
691.862	0.0273454
691.997	0.0275896
692.132	0.0275285
692.266	0.0291155
692.401	0.0277727
692.536	0.0270402
692.671	0.0277117
692.806	0.0274065
692.941	0.0285662
693.075	0.0268571
693.21	0.0272844
693.345	0.0282
693.48	0.0271623
693.615	0.0279558
693.75	0.0280168
693.885	0.0278948
694.019	0.0286272
694.154	0.0279558
694.289	0.0278948
694.424	0.0275896
694.559	0.0289935
694.694	0.0270402
694.828	0.0277117
694.963	0.028322
695.098	0.0277727
695.233	0.0269792
695.368	0.0274065
695.503	0.0273454
695.637	0.0277117
695.772	0.0273454
695.907	0.0285662
696.042	0.0284441
696.177	0.0280168
696.312	0.0276506
696.446	0.028322
696.581	0.0274675
696.716	0.0279558
696.851	0.0274065
696.986	0.0294818
697.12	0.0282
697.255	0.0275285
697.39	0.0274675
697.525	0.0267961
697.66	0.0280779
697.795	0.0273454
697.929	0.0273454
698.064	0.0272233
698.199	0.0275896
698.334	0.0274065
698.469	0.0272844
698.604	0.028261
698.738	0.0270402
698.873	0.0283831
699.008	0.0274675
699.143	0.0288714
699.278	0.0276506
699.412	0.0271623
699.547	0.0289324
699.682	0.0278337
699.817	0.0281389
699.952	0.0271013
700.087	0.0280779
700.221	0.0281389
700.356	0.0278948
700.491	0.0271013
700.626	0.028261
700.761	0.0277117
700.895	0.0273454
701.03	0.028261
701.165	0.0285662
701.3	0.0277727
701.435	0.0275285
701.57	0.0280168
701.704	0.0280168
701.839	0.0271623
701.974	0.0274065
702.109	0.0282
702.244	0.0275896
702.378	0.0276506
702.513	0.0271013
702.648	0.0269792
702.783	0.0281389
702.918	0.028322
703.052	0.0263688
703.187	0.028322
703.322	0.0270402
703.457	0.028261
703.592	0.0277727
703.727	0.0278337
703.861	0.028322
703.996	0.0280168
704.131	0.0274065
704.266	0.0275896
704.401	0.0286883
704.535	0.0287493
704.67	0.0277117
704.805	0.0278337
704.94	0.0287493
705.075	0.0279558
705.209	0.0280168
705.344	0.0277727
705.479	0.0275896
705.614	0.0276506
705.749	0.0265519
705.883	0.028261
706.018	0.0275896
706.153	0.0280168
706.288	0.0274065
706.423	0.0278337
706.557	0.0286272
706.692	0.0277117
706.827	0.0279558
706.962	0.0269792
707.097	0.0282
707.231	0.0272844
707.366	0.0274065
707.501	0.0277727
707.636	0.0280779
707.771	0.0269792
707.905	0.0290545
708.04	0.0280779
708.175	0.0271013
708.31	0.0272233
708.445	0.0278337
708.579	0.0276506
708.714	0.0280168
708.849	0.0278337
708.984	0.0282
709.118	0.0277727
709.253	0.0277727
709.388	0.0276506
709.523	0.0273454
709.658	0.0271013
709.792	0.0276506
709.927	0.0267961
710.062	0.0274065
710.197	0.0273454
710.332	0.0274675
710.466	0.0274065
710.601	0.0275285
710.736	0.0281389
710.871	0.0280779
711.006	0.0281389
711.14	0.0285662
711.275	0.0275285
711.41	0.028261
711.545	0.0283831
711.679	0.0276506
711.814	0.0277117
711.949	0.0275285
712.084	0.0274065
712.219	0.0277117
712.353	0.0274065
712.488	0.0275896
712.623	0.0282
712.758	0.0272844
712.892	0.0278337
713.027	0.0273454
713.162	0.0274675
713.297	0.0268571
713.432	0.0278337
713.566	0.0274065
713.701	0.0278337
713.836	0.0279558
713.971	0.0283831
714.105	0.0272844
714.24	0.0288714
714.375	0.0277117
714.51	0.0276506
714.645	0.0283831
714.779	0.0274675
714.914	0.028322
715.049	0.028322
715.184	0.0274675
715.318	0.0280779
715.453	0.0277727
715.588	0.0283831
715.723	0.0279558
715.858	0.0272233
715.992	0.0269181
716.127	0.0276506
716.262	0.0278948
716.397	0.0282
716.531	0.0274675
716.666	0.0281389
716.801	0.0277727
716.936	0.0268571
717.07	0.0274065
717.205	0.0281389
717.34	0.0272233
717.475	0.0272844
717.61	0.0283831
717.744	0.0285662
717.879	0.0277117
718.014	0.0275896
718.149	0.0274675
718.283	0.0277727
718.418	0.0275896
718.553	0.0282
718.688	0.0273454
718.822	0.0278337
718.957	0.0285052
719.092	0.0275896
719.227	0.028261
719.361	0.0282
719.496	0.0277727
719.631	0.0277727
719.766	0.0284441
719.9	0.0277117
720.035	0.0272233
720.17	0.028261
720.305	0.0280779
720.44	0.0277117
720.574	0.0265519
720.709	0.0279558
720.844	0.0289935
720.979	0.0277117
721.113	0.0278948
721.248	0.0284441
721.383	0.0277117
721.518	0.0280168
721.652	0.028322
721.787	0.0275896
721.922	0.0280779
722.057	0.0278948
722.191	0.0276506
722.326	0.0273454
722.461	0.0277117
722.596	0.0274675
722.73	0.0285052
722.865	0.0276506
723	0.0275285
723.135	0.0268571
723.269	0.0277117
723.404	0.0289935
723.539	0.0275285
723.674	0.0275285
723.808	0.0276506
723.943	0.0272233
724.078	0.0288104
724.213	0.026735
724.347	0.0274675
724.482	0.0274065
724.617	0.0281389
724.752	0.0273454
724.886	0.0267961
725.021	0.0267961
725.156	0.028261
725.291	0.0280779
725.425	0.0278948
725.56	0.0278948
725.695	0.0279558
725.829	0.0280168
725.964	0.0275285
726.099	0.0276506
726.234	0.0271013
726.368	0.0280168
726.503	0.0267961
726.638	0.0276506
726.773	0.0275896
726.907	0.0276506
727.042	0.0278948
727.177	0.0276506
727.312	0.0276506
727.446	0.0282
727.581	0.0273454
727.716	0.0272844
727.851	0.0274065
727.985	0.0281389
728.12	0.0277117
728.255	0.0277727
728.389	0.0275285
728.524	0.0277727
728.659	0.0278948
728.794	0.0277117
728.928	0.0278337
729.063	0.0280168
729.198	0.0273454
729.333	0.0282
729.467	0.0273454
729.602	0.0287493
729.737	0.0285052
729.872	0.0277117
730.006	0.0277117
730.141	0.028261
730.276	0.0281389
730.41	0.0278948
730.545	0.0275285
730.68	0.0288104
730.815	0.0270402
730.949	0.0273454
731.084	0.0280168
731.219	0.0284441
731.354	0.0282
731.488	0.0279558
731.623	0.0272844
731.758	0.0272844
731.892	0.0275285
732.027	0.0277117
732.162	0.0275285
732.297	0.0278948
732.431	0.0281389
732.566	0.0280779
732.701	0.0275896
732.835	0.0275896
732.97	0.0286272
733.105	0.0271013
733.24	0.0284441
733.374	0.0272233
733.509	0.0275896
733.644	0.0270402
733.779	0.0280779
733.913	0.0281389
734.048	0.0275896
734.183	0.0280779
734.317	0.0272844
734.452	0.028261
734.587	0.0277117
734.722	0.0277117
734.856	0.0280779
734.991	0.0280168
735.126	0.0274675
735.26	0.0278948
735.395	0.028261
735.53	0.0278337
735.665	0.0289324
735.799	0.0275285
735.934	0.0270402
736.069	0.0273454
736.203	0.0280168
736.338	0.0280168
736.473	0.0269792
736.607	0.0273454
736.742	0.0287493
736.877	0.0274675
737.012	0.0269181
737.146	0.0275285
737.281	0.0274065
737.416	0.0278948
737.55	0.0278337
737.685	0.0289324
737.82	0.0274675
737.955	0.0280779
738.089	0.028261
738.224	0.0281389
738.359	0.0275285
738.493	0.0282
738.628	0.028322
738.763	0.0280168
738.897	0.0284441
739.032	0.0279558
739.167	0.0277117
739.302	0.0274675
739.436	0.0278337
739.571	0.0277117
739.706	0.0268571
739.84	0.0272233
739.975	0.0287493
740.11	0.0280168
740.244	0.0279558
740.379	0.026735
740.514	0.0272233
740.649	0.0278337
740.783	0.0281389
740.918	0.0288104
741.053	0.0277117
741.187	0.0277727
741.322	0.0280168
741.457	0.0273454
741.591	0.0280779
741.726	0.0285052
741.861	0.0271623
741.996	0.0280168
742.13	0.0278337
742.265	0.0280168
742.4	0.0272844
742.534	0.0271013
742.669	0.0276506
742.804	0.0269792
742.938	0.0272844
743.073	0.0279558
743.208	0.0284441
743.342	0.0286272
743.477	0.0275285
743.612	0.0277727
743.747	0.0272233
743.881	0.0272844
744.016	0.0282
744.151	0.0276506
744.285	0.0279558
744.42	0.0278337
744.555	0.0272844
744.689	0.0278948
744.824	0.0275285
744.959	0.0281389
745.093	0.0277117
745.228	0.0272844
745.363	0.0280779
745.497	0.0278948
745.632	0.0280779
745.767	0.0286272
745.901	0.028322
746.036	0.0283831
746.171	0.0273454
746.305	0.0285662
746.44	0.0272844
746.575	0.0275896
746.71	0.0281389
746.844	0.0271013
746.979	0.0274675
747.114	0.0275285
747.248	0.0273454
747.383	0.028322
747.518	0.0279558
747.652	0.0285052
747.787	0.0277727
747.922	0.028261
748.056	0.0267961
748.191	0.0277727
748.326	0.0285052
748.46	0.028322
748.595	0.0280779
748.73	0.0288104
748.864	0.0269792
748.999	0.0277117
749.134	0.0277117
749.268	0.0276506
749.403	0.0277117
749.538	0.0269792
749.672	0.0265519
749.807	0.0287493
749.942	0.0277727
750.076	0.0277117
750.211	0.0271013
750.346	0.0294818
750.48	0.0278948
750.615	0.0279558
750.75	0.0278337
750.884	0.0279558
751.019	0.0280168
751.154	0.0274675
751.288	0.0275896
751.423	0.0277727
751.558	0.0286272
751.692	0.0273454
751.827	0.0272844
751.962	0.028261
752.096	0.0278337
752.231	0.0276506
752.366	0.0283831
752.5	0.028261
752.635	0.0271623
752.77	0.028322
752.904	0.0280779
753.039	0.0288714
753.174	0.0279558
753.308	0.0277117
753.443	0.0269181
753.578	0.0274065
753.712	0.0281389
753.847	0.0271013
753.982	0.0282
754.116	0.0280168
754.251	0.0276506
754.386	0.0277727
754.52	0.0264298
754.655	0.0280779
754.79	0.0284441
754.924	0.0280779
755.059	0.0267961
755.194	0.0280779
755.328	0.0270402
755.463	0.0278948
755.597	0.0279558
755.732	0.0281389
755.867	0.0279558
756.001	0.0274675
756.136	0.0278948
756.271	0.0277727
756.405	0.0276506
756.54	0.0277727
756.675	0.0269181
756.809	0.0279558
756.944	0.0278337
757.079	0.0280779
757.213	0.0281389
757.348	0.0275285
757.483	0.0279558
757.617	0.0273454
757.752	0.0277117
757.887	0.0274675
758.021	0.0269792
758.156	0.0275285
758.29	0.0269792
758.425	0.0282
758.56	0.0278337
758.694	0.0278948
758.829	0.0276506
758.964	0.0274675
759.098	0.0275285
759.233	0.0285052
759.368	0.0278337
759.502	0.0278948
759.637	0.0278337
759.772	0.028261
759.906	0.0275285
760.041	0.0285052
760.175	0.0278948
760.31	0.0274675
760.445	0.028322
760.579	0.0278337
760.714	0.0272844
760.849	0.0272844
760.983	0.0272844
761.118	0.0277117
761.253	0.0279558
761.387	0.0283831
761.522	0.0276506
761.656	0.028322
761.791	0.0277117
761.926	0.0274675
762.06	0.0278337
762.195	0.0277727
762.33	0.0282
762.464	0.0278948
762.599	0.0274675
762.733	0.0289935
762.868	0.0275285
763.003	0.0278337
763.137	0.0275896
763.272	0.0286272
763.407	0.0280168
763.541	0.0276506
763.676	0.0279558
763.811	0.0277727
763.945	0.0272233
764.08	0.0285662
764.214	0.0276506
764.349	0.0275896
764.484	0.0284441
764.618	0.0273454
764.753	0.0269792
764.888	0.0285662
765.022	0.0280168
765.157	0.0274675
765.291	0.0285662
765.426	0.0284441
765.561	0.0275285
765.695	0.0282
765.83	0.0278948
765.965	0.028322
766.099	0.0267961
766.234	0.0277117
766.368	0.0272233
766.503	0.0279558
766.638	0.028322
766.772	0.0283831
766.907	0.0275896
767.041	0.0278337
767.176	0.0271623
767.311	0.0288714
767.445	0.0278948
767.58	0.0272233
767.715	0.0279558
767.849	0.0281389
767.984	0.0283831
768.118	0.0278337
768.253	0.0281389
768.388	0.0278948
768.522	0.0274675
768.657	0.0277117
768.791	0.0271013
768.926	0.0282
769.061	0.0280168
769.195	0.0274065
769.33	0.0282
769.465	0.0274675
769.599	0.0281389
769.734	0.028261
769.868	0.0272844
770.003	0.0280168
770.138	0.0277117
770.272	0.0271013
770.407	0.0275285
770.541	0.0276506
770.676	0.0278948
770.811	0.0284441
770.945	0.0281389
771.08	0.0272844
771.214	0.0278337
771.349	0.0279558
771.484	0.0275285
771.618	0.0277727
771.753	0.0280779
771.887	0.0281389
772.022	0.0268571
772.157	0.0278948
772.291	0.0276506
772.426	0.0275285
772.56	0.0275285
772.695	0.0280779
772.83	0.0275896
772.964	0.0285052
773.099	0.0264298
773.233	0.0281389
773.368	0.0269792
773.503	0.0282
773.637	0.0282
773.772	0.0280779
773.906	0.0286272
774.041	0.0279558
774.176	0.0273454
774.31	0.0273454
774.445	0.0279558
774.579	0.0272233
774.714	0.0269792
774.849	0.0280168
774.983	0.0281389
775.118	0.0276506
775.252	0.0280168
775.387	0.0274675
775.522	0.0279558
775.656	0.0274065
775.791	0.0277117
775.925	0.0286272
776.06	0.0278948
776.195	0.0285052
776.329	0.0280168
776.464	0.0278337
776.598	0.028322
776.733	0.0272844
776.868	0.0272844
777.002	0.0279558
777.137	0.0278948
777.271	0.0280168
777.406	0.0275896
777.54	0.026674
777.675	0.0277117
777.81	0.0278337
777.944	0.0279558
778.079	0.028322
778.213	0.0277117
778.348	0.0279558
778.483	0.0279558
778.617	0.0276506
778.752	0.0277727
778.886	0.0283831
779.021	0.0276506
779.155	0.0278948
779.29	0.028261
779.425	0.028322
779.559	0.0284441
779.694	0.0277727
779.828	0.0282
779.963	0.0284441
780.098	0.0281389
780.232	0.0284441
780.367	0.0277727
780.501	0.0284441
780.636	0.0290545
780.77	0.0274675
780.905	0.0279558
781.04	0.0285052
781.174	0.0277727
781.309	0.0280168
781.443	0.0274065
781.578	0.0278948
781.712	0.0278337
781.847	0.0277117
781.982	0.0275896
782.116	0.0279558
782.251	0.0274065
782.385	0.0276506
782.52	0.0277727
782.654	0.0274675
782.789	0.0276506
782.924	0.0285662
783.058	0.0280168
783.193	0.028261
783.327	0.0275285
783.462	0.0280168
783.596	0.0278948
783.731	0.0272844
783.866	0.026735
784	0.0282
784.135	0.0275896
784.269	0.0281389
784.404	0.0277727
784.538	0.0275285
784.673	0.0268571
784.808	0.0279558
784.942	0.0276506
785.077	0.0276506
785.211	0.0280168
785.346	0.0271013
785.48	0.0282
785.615	0.0277727
785.75	0.0271013
785.884	0.0272233
786.019	0.0278948
786.153	0.0272233
786.288	0.0279558
786.422	0.0274065
786.557	0.0283831
786.691	0.0278337
786.826	0.0274675
786.961	0.0278948
787.095	0.0281389
787.23	0.0282
787.364	0.0279558
787.499	0.0278948
787.633	0.0280168
787.768	0.0280168
787.902	0.0282
788.037	0.0278337
788.172	0.028261
788.306	0.0283831
788.441	0.0281389
788.575	0.0278337
788.71	0.0268571
788.844	0.0277117
788.979	0.0274065
789.113	0.0278337
789.248	0.0278948
789.383	0.0277117
789.517	0.0281389
789.652	0.0279558
789.786	0.028322
789.921	0.0273454
790.055	0.0276506
790.19	0.0277727
790.324	0.0271623
790.459	0.0277727
790.594	0.0278337
790.728	0.0273454
790.863	0.0277117
790.997	0.0281389
791.132	0.0277117
791.266	0.0272844
791.401	0.0279558
791.535	0.0277117
791.67	0.0282
791.804	0.0285052
791.939	0.028322
792.074	0.0274675
792.208	0.0280779
792.343	0.0280779
792.477	0.0272844
792.612	0.0278948
792.746	0.0275896
792.881	0.0273454
793.015	0.0284441
793.15	0.0277117
793.284	0.0275896
793.419	0.0280779
793.553	0.0271623
793.688	0.0273454
793.823	0.0274675
793.957	0.0280779
794.092	0.0284441
794.226	0.0269181
794.361	0.0282
794.495	0.0280168
794.63	0.0274065
794.764	0.0274065
794.899	0.0274675
795.033	0.0282
795.168	0.0279558
795.302	0.0285052
795.437	0.0284441
795.572	0.0286272
795.706	0.0275896
795.841	0.0280779
795.975	0.0276506
796.11	0.0278337
796.244	0.028322
796.379	0.0278948
796.513	0.0285052
796.648	0.0272233
796.782	0.0276506
796.917	0.0277727
797.051	0.0282
797.186	0.0282
797.32	0.0280168
797.455	0.0285052
797.589	0.026674
797.724	0.0285052
797.859	0.0277727
797.993	0.0286272
798.128	0.0280779
798.262	0.0276506
798.397	0.0278948
798.531	0.0277117
798.666	0.0271623
798.8	0.0285662
798.935	0.028261
799.069	0.0272233
799.204	0.0274065
799.338	0.0281389
799.473	0.0275896
799.607	0.0278337
799.742	0.0273454
799.876	0.0283831
800.011	0.0283831
800.145	0.0284441
800.28	0.0280779
800.414	0.0288714
800.549	0.0271623
800.683	0.0275896
800.818	0.0283831
800.953	0.0277117
801.087	0.0269792
801.222	0.0278948
801.356	0.0274065
801.491	0.0278948
801.625	0.0289324
801.76	0.0283831
801.894	0.0275896
802.029	0.028261
802.163	0.0286272
802.298	0.0291155
802.432	0.0280779
802.567	0.0280168
802.701	0.0287493
802.836	0.0284441
802.97	0.0286272
803.105	0.0288714
803.239	0.0282
803.374	0.0280779
803.508	0.028322
803.643	0.0286272
803.777	0.0280168
803.912	0.0280168
804.046	0.0285052
804.181	0.0281389
804.315	0.0279558
804.45	0.028261
804.584	0.028322
804.719	0.028322
804.853	0.0277727
804.988	0.0278337
805.122	0.0285662
805.257	0.0289324
805.391	0.0287493
805.526	0.0286272
805.66	0.0282
805.795	0.0282
805.929	0.0280779
806.064	0.0283831
806.198	0.0288714
806.333	0.0279558
806.467	0.0286272
806.602	0.0288104
806.736	0.0284441
806.871	0.0286883
807.005	0.0286272
807.14	0.0288714
807.274	0.0287493
807.409	0.0278948
807.543	0.0294818
807.678	0.0295428
807.812	0.0291155
807.947	0.0289324
808.081	0.0297259
808.216	0.0294818
808.35	0.0295428
808.485	0.0305805
808.619	0.0292987
808.754	0.0297259
808.888	0.0302753
809.023	0.0308857
809.157	0.029848
809.292	0.0297259
809.426	0.0303974
809.561	0.0302753
809.695	0.0318623
809.83	0.0302142
809.964	0.0309467
810.099	0.0315571
810.233	0.0313129
810.368	0.0314961
810.502	0.0317402
810.637	0.0316792
810.771	0.0326558
810.906	0.0321675
811.04	0.0340597
811.175	0.0337545
811.309	0.034609
811.444	0.0349142
811.578	0.0359519
811.713	0.0368064
811.847	0.0365623
811.982	0.0378441
812.116	0.0386376
812.251	0.0387597
812.385	0.040774
812.519	0.0413844
812.654	0.0429714
812.788	0.045596
812.923	0.0463285
813.057	0.436184
813.192	0.827382
813.326	1
813.461	1
813.595	1
813.73	1
813.864	1
813.999	1
814.133	1
814.268	1
814.402	1
814.537	1
814.671	1
814.806	1
814.94	1
815.075	1
815.209	0.997375
815.344	1
815.478	0.993408
815.612	0.996277
815.747	0.987182
815.881	0.990356
816.016	0.978148
816.15	0.981322
816.285	0.96356
816.419	0.963926
816.554	0.931331
816.688	0.610206
816.823	0.347983
816.957	0.650552
817.092	0.725325
817.226	0.300678
817.361	0.080022
817.495	0.0509675
817.63	0.0459012
817.764	0.0425441
817.898	0.0415675
818.033	0.0394311
818.167	0.0374168
818.302	0.0368675
818.436	0.0369896
818.571	0.0361961
818.705	0.0350363
818.84	0.0348532
818.974	0.034548
819.109	0.0350363
819.243	0.033022
819.378	0.0337545
819.512	0.0333272
819.646	0.0323506
819.781	0.033022
819.915	0.0324727
820.05	0.0321065
820.184	0.0308857
820.319	0.0310688
820.453	0.031374
820.588	0.0310078
820.722	0.0309467
820.857	0.0308246
820.991	0.0305194
821.126	0.0303974
821.26	0.0293597
821.394	0.0305194
821.529	0.0300922
821.663	0.0294207
821.798	0.0289935
821.932	0.0287493
822.067	0.0291155
822.201	0.029787
822.336	0.0288714
822.47	0.0294207
822.605	0.0290545
822.739	0.0284441
822.873	0.0286272
823.008	0.0295428
823.142	0.0284441
823.277	0.0286272
823.411	0.0281389
823.546	0.028322
823.68	0.0278337
823.815	0.0286883
823.949	0.0278337
824.083	0.0290545
824.218	0.0283831
824.352	0.0286883
824.487	0.0282
824.621	0.0289324
824.756	0.0286883
824.89	0.0283831
825.025	0.0285052
825.159	0.0296649
825.293	0.0283831
825.428	0.0286272
825.562	0.0289324
825.697	0.028261
825.831	0.0277727
825.966	0.0289324
826.1	0.0277727
826.235	0.028261
826.369	0.0288104
826.503	0.0286272
826.638	0.0278337
826.772	0.028261
826.907	0.0281389
827.041	0.0281389
827.176	0.028322
827.31	0.0285662
827.445	0.0284441
827.579	0.0282
827.713	0.0282
827.848	0.0281389
827.982	0.0279558
828.117	0.0281389
828.251	0.0278337
828.386	0.028261
828.52	0.0274675
828.654	0.0279558
828.789	0.0272233
828.923	0.0286883
829.058	0.0287493
829.192	0.0280168
829.327	0.0276506
829.461	0.0281389
829.596	0.0284441
829.73	0.028322
829.864	0.0280168
829.999	0.0278337
830.133	0.0272233
830.268	0.0277117
830.402	0.0276506
830.537	0.028261
830.671	0.028261
830.805	0.0277117
830.94	0.0278948
831.074	0.0285662
831.209	0.0278337
831.343	0.0279558
831.478	0.0277117
831.612	0.0280779
831.746	0.0279558
831.881	0.0273454
832.015	0.0283831
832.15	0.0280779
832.284	0.0278337
832.418	0.028261
832.553	0.0274065
832.687	0.0277727
832.822	0.0271623
832.956	0.0283831
833.091	0.028322
833.225	0.0280779
833.359	0.0271623
833.494	0.0285662
833.628	0.0282
833.763	0.0277117
833.897	0.0277117
834.032	0.0284441
834.166	0.0270402
834.3	0.0272844
834.435	0.0278337
834.569	0.0279558
834.704	0.0275285
834.838	0.0286883
834.972	0.0280168
835.107	0.0272233
835.241	0.0272233
835.376	0.0282
835.51	0.0280168
835.645	0.0278948
835.779	0.0279558
835.913	0.0286883
836.048	0.0277117
836.182	0.0275896
836.317	0.0271013
836.451	0.0277117
836.585	0.0275896
836.72	0.0273454
836.854	0.0279558
836.989	0.0282
837.123	0.028261
837.257	0.0281389
837.392	0.0274675
837.526	0.0275896
837.661	0.0271623
837.795	0.0272844
837.929	0.0279558
838.064	0.0281389
838.198	0.0272844
838.333	0.0284441
838.467	0.028261
838.602	0.0283831
838.736	0.0286883
838.87	0.026735
839.005	0.0278948
839.139	0.0278337
839.274	0.0261246
839.408	0.0278337
839.542	0.0274675
839.677	0.0272844
839.811	0.0271623
839.946	0.0278337
840.08	0.0271623
840.214	0.0285052
840.349	0.0273454
840.483	0.0271623
840.618	0.0277117
840.752	0.0276506
840.886	0.0279558
841.021	0.0281389
841.155	0.028261
841.29	0.0276506
841.424	0.0276506
841.558	0.0281389
841.693	0.0282
841.827	0.0277117
841.961	0.0280779
842.096	0.0278948
842.23	0.0273454
842.365	0.0271013
842.499	0.0273454
842.633	0.0277727
842.768	0.0285662
842.902	0.0288714
843.037	0.0272233
843.171	0.0286883
843.305	0.0282
843.44	0.0280168
843.574	0.0276506
843.709	0.0280168
843.843	0.0275896
843.977	0.0275285
844.112	0.0273454
844.246	0.0282
844.381	0.0270402
844.515	0.0274065
844.649	0.0288104
844.784	0.0278948
844.918	0.0280779
845.052	0.0278948
845.187	0.0272233
845.321	0.0272844
845.456	0.0280168
845.59	0.0279558
845.724	0.0286883
845.859	0.0274675
845.993	0.0278337
846.128	0.0281389
846.262	0.0289324
846.396	0.0278948
846.531	0.0282
846.665	0.0269792
846.799	0.0272233
846.934	0.0280779
847.068	0.0275896
847.203	0.028261
847.337	0.0269792
847.471	0.0274065
847.606	0.0275285
847.74	0.0276506
847.874	0.0272844
848.009	0.0272233
848.143	0.0276506
848.278	0.0289935
848.412	0.0285052
848.546	0.0275285
848.681	0.0275285
848.815	0.0273454
848.949	0.0273454
849.084	0.0278337
849.218	0.0272844
849.353	0.0281389
849.487	0.0271623
849.621	0.0279558
849.756	0.0278948
849.89	0.0285052
850.024	0.0280779
850.159	0.0285662
850.293	0.0270402
850.428	0.0269792
850.562	0.0272233
850.696	0.0283831
850.831	0.0277117
850.965	0.028261
851.099	0.0271623
851.234	0.0280168
851.368	0.0276506
851.502	0.0274675
851.637	0.0288104
851.771	0.0280168
851.906	0.0276506
852.04	0.0268571
852.174	0.0274675
852.309	0.0275285
852.443	0.0277117
852.577	0.0283831
852.712	0.0273454
852.846	0.0278948
852.98	0.0277117
853.115	0.0278948
853.249	0.0282
853.384	0.0282
853.518	0.0281389
853.652	0.0280779
853.787	0.0276506
853.921	0.0279558
854.055	0.0278337
854.19	0.0272844
854.324	0.0277117
854.458	0.0278337
854.593	0.0270402
854.727	0.0274675
854.861	0.0279558
854.996	0.028322
855.13	0.0272233
855.265	0.0274675
855.399	0.0286272
855.533	0.0275285
855.668	0.0272233
855.802	0.0274675
855.936	0.0283831
856.071	0.0282
856.205	0.0272233
856.339	0.0284441
856.474	0.0283831
856.608	0.0268571
856.742	0.0282
856.877	0.0271013
857.011	0.0268571
857.145	0.0273454
857.28	0.0280168
857.414	0.0278948
857.549	0.0274065
857.683	0.0271623
857.817	0.0274065
857.952	0.0274675
858.086	0.0275896
858.22	0.0285052
858.355	0.0289324
858.489	0.0275285
858.623	0.0283831
858.758	0.0278337
858.892	0.0280168
859.026	0.0280168
859.161	0.0275896
859.295	0.0276506
859.429	0.0282
859.564	0.0291766
859.698	0.0267961
859.832	0.0274675
859.967	0.0274675
860.101	0.0279558
860.235	0.026613
860.37	0.0272233
860.504	0.0268571
860.638	0.0275285
860.773	0.0264909
860.907	0.0275285
861.041	0.0280779
861.176	0.0277727
861.31	0.0278948
861.444	0.0277117
861.579	0.028261
861.713	0.0286272
861.847	0.0281389
861.982	0.0278948
862.116	0.0278948
862.25	0.0278948
862.385	0.0268571
862.519	0.0285052
862.653	0.0273454
862.788	0.0283831
862.922	0.028261
863.056	0.0278337
863.191	0.0272844
863.325	0.0277727
863.459	0.0278948
863.594	0.0275896
863.728	0.0278948
863.862	0.0277727
863.997	0.0277117
864.131	0.0289324
864.265	0.028261
864.4	0.0283831
864.534	0.0265519
864.668	0.0277727
864.803	0.0277727
864.937	0.0277727
865.071	0.0277727
865.206	0.0280168
865.34	0.0280779
865.474	0.0282
865.609	0.0276506
865.743	0.0264909
865.877	0.0272844
866.012	0.0278948
866.146	0.0274065
866.28	0.0271013
866.415	0.0277727
866.549	0.0277117
866.683	0.028322
866.818	0.0274675
866.952	0.0280168
867.086	0.0276506
867.221	0.0269792
867.355	0.0278948
867.489	0.028261
867.623	0.0281389
867.758	0.0280779
867.892	0.0268571
868.026	0.0275285
868.161	0.0275285
868.295	0.0279558
868.429	0.0275896
868.564	0.026613
868.698	0.0277727
868.832	0.0280168
868.967	0.0278948
869.101	0.0275285
869.235	0.0283831
869.37	0.0280168
869.504	0.028261
869.638	0.0280168
869.773	0.0281389
869.907	0.0282
870.041	0.0274675
870.175	0.0282
870.31	0.0275896
870.444	0.0275896
870.578	0.0284441
870.713	0.0280779
870.847	0.0282
870.981	0.0280779
871.116	0.0272233
871.25	0.0278948
871.384	0.0274675
871.519	0.0286272
871.653	0.0279558
871.787	0.0282
871.921	0.0281389
872.056	0.0275896
872.19	0.0280779
872.324	0.0275896
872.459	0.0277117
872.593	0.0276506
872.727	0.0276506
872.862	0.0278948
872.996	0.0282
873.13	0.0277727
873.264	0.0278948
873.399	0.0269792
873.533	0.0270402
873.667	0.0277117
873.802	0.0276506
873.936	0.0274065
874.07	0.0278337
874.205	0.026735
874.339	0.0286883
874.473	0.0276506
874.607	0.0272844
874.742	0.0279558
874.876	0.0278337
875.01	0.0271623
875.145	0.0271013
875.279	0.0278337
875.413	0.0275285
875.548	0.0271623
875.682	0.028261
875.816	0.0264298
875.95	0.0274675
876.085	0.0275896
876.219	0.0267961
876.353	0.0274675
876.488	0.028261
876.622	0.0280168
876.756	0.0282
876.89	0.0274675
877.025	0.0274065
877.159	0.0281389
877.293	0.0280779
877.428	0.0272844
877.562	0.0274065
877.696	0.0275285
877.83	0.0278948
877.965	0.0285662
878.099	0.0275896
878.233	0.0271013
878.368	0.0278948
878.502	0.0273454
878.636	0.0280168
878.77	0.0277117
878.905	0.0278337
879.039	0.0282
879.173	0.0272233
879.308	0.0282
879.442	0.0273454
879.576	0.0272233
879.71	0.0281389
879.845	0.0272844
879.979	0.0279558
880.113	0.0280168
880.248	0.0272233
880.382	0.0271013
880.516	0.0274065
880.65	0.0271013
880.785	0.0280779
880.919	0.0274675
881.053	0.0278948
881.188	0.0277117
881.322	0.0277117
881.456	0.0280779
881.59	0.0276506
881.725	0.0278948
881.859	0.0277117
881.993	0.0275285
882.127	0.0279558
882.262	0.0276506
882.396	0.0271623
882.53	0.0275285
882.665	0.0270402
882.799	0.0276506
882.933	0.0275896
883.067	0.0283831
883.202	0.0278337
883.336	0.0280779
883.47	0.0282
883.604	0.0281389
883.739	0.0278337
883.873	0.0277727
884.007	0.0275285
884.142	0.0268571
884.276	0.0275896
884.41	0.0272233
884.544	0.028322
884.679	0.0282
884.813	0.0277727
884.947	0.028322
885.081	0.0280779
885.216	0.0275896
885.35	0.0276506
885.484	0.0271013
885.618	0.0267961
885.753	0.028261
885.887	0.0279558
886.021	0.0268571
886.155	0.0275285
886.29	0.0277117
886.424	0.0276506
886.558	0.0280779
886.693	0.0277727
886.827	0.0272233
886.961	0.026735
887.095	0.0274065
887.23	0.0290545
887.364	0.0278337
887.498	0.0274675
887.632	0.0280168
887.767	0.026613
887.901	0.0279558
888.035	0.0285662
888.169	0.0279558
888.304	0.0278337
888.438	0.0287493
888.572	0.0273454
888.706	0.0275896
888.841	0.0284441
888.975	0.0274065
889.109	0.0286272
889.243	0.0278948
889.378	0.0273454
889.512	0.0275285
889.646	0.0280779
889.78	0.028261
889.915	0.0272233
890.049	0.0285662
890.183	0.0278337
890.317	0.0279558
890.452	0.0276506
890.586	0.0271013
890.72	0.0278337
890.854	0.0276506
890.989	0.0283831
891.123	0.0277727
891.257	0.0278948
891.391	0.0277117
891.526	0.0278948
891.66	0.0278948
891.794	0.0277727
891.928	0.0275285
892.063	0.028322
892.197	0.0282
892.331	0.0276506
892.465	0.0279558
892.6	0.0277727
892.734	0.0278948
892.868	0.0272233
893.002	0.0286883
893.137	0.0275896
893.271	0.0278948
893.405	0.028322
893.539	0.026613
893.674	0.0270402
893.808	0.0278337
893.942	0.0274065
894.076	0.0274675
894.21	0.0278337
894.345	0.0262467
894.479	0.0273454
894.613	0.0283831
894.747	0.0285052
894.882	0.0277117
895.016	0.0271623
895.15	0.0280779
895.284	0.0284441
895.419	0.0284441
895.553	0.0274065
895.687	0.0277727
895.821	0.0273454
895.956	0.0275285
896.09	0.0280168
896.224	0.0275285
896.358	0.0274675
896.492	0.0282
896.627	0.0283831
896.761	0.0280168
896.895	0.0280168
897.029	0.0274675
897.164	0.0276506
897.298	0.0278948
897.432	0.0280168
897.566	0.0275896
897.701	0.0278948
897.835	0.0280779
897.969	0.0278948
898.103	0.0280168
898.237	0.0280779
898.372	0.0280168
898.506	0.0276506
898.64	0.0278337
898.774	0.0277117
898.909	0.0275285
899.043	0.0274675
899.177	0.0278337
899.311	0.0282
899.445	0.0276506
899.58	0.0269792
899.714	0.0280779
899.848	0.028261
899.982	0.0277117
900.117	0.0277727
900.251	0.0277727
900.385	0.0275896
900.519	0.0275285
900.653	0.0282
900.788	0.0275896
900.922	0.0276506
901.056	0.0288104
901.19	0.0271623
901.325	0.0281389
901.459	0.0289324
901.593	0.0280779
901.727	0.0278337
901.861	0.0274065
901.996	0.0280779
902.13	0.0276506
902.264	0.0278948
902.398	0.0281389
902.532	0.0274065
902.667	0.0284441
902.801	0.0281389
902.935	0.0280779
903.069	0.0280779
903.204	0.0277117
903.338	0.0279558
903.472	0.0271623
903.606	0.0276506
903.74	0.0281389
903.875	0.0274065
904.009	0.0280779
904.143	0.0278948
904.277	0.0275285
904.411	0.0280779
904.546	0.0275896
904.68	0.0272233
904.814	0.0277727
904.948	0.0283831
905.082	0.0284441
905.217	0.0280168
905.351	0.0283831
905.485	0.0277117
905.619	0.0275285
905.753	0.0281389
905.888	0.028261
906.022	0.0271623
906.156	0.0282
906.29	0.0273454
906.424	0.028261
906.559	0.0286883
906.693	0.0278337
906.827	0.0285662
906.961	0.0280168
907.095	0.0273454
907.23	0.0278337
907.364	0.0279558
907.498	0.0272233
907.632	0.0272844
907.766	0.0280168
907.901	0.0279558
908.035	0.0280168
908.169	0.0280168
908.303	0.026674
908.437	0.0273454
908.572	0.0271623
908.706	0.0280168
908.84	0.0275896
908.974	0.0284441
909.108	0.0271623
909.243	0.0269792
909.377	0.0269792
909.511	0.0284441
909.645	0.0277117
909.779	0.0274065
909.914	0.0275896
910.048	0.0286272
910.182	0.0280168
910.316	0.0283831
910.45	0.026674
910.585	0.0278337
910.719	0.0280168
910.853	0.0280168
910.987	0.0286883
911.121	0.0272844
911.255	0.0278948
911.39	0.0288104
911.524	0.028261
911.658	0.0275896
911.792	0.0284441
911.926	0.0276506
912.061	0.026735
912.195	0.0272233
912.329	0.0275285
912.463	0.0274675
912.597	0.0274675
912.732	0.0279558
912.866	0.0271623
913	0.0274065
913.134	0.0280168
913.268	0.0272844
913.402	0.0282
913.537	0.0278948
913.671	0.0278337
913.805	0.028322
913.939	0.0277117
914.073	0.028322
914.208	0.0275285
914.342	0.0274065
914.476	0.0277727
914.61	0.0280168
914.744	0.0279558
914.878	0.028261
915.013	0.0267961
915.147	0.0271623
915.281	0.0274065
915.415	0.0281389
915.549	0.026613
915.683	0.0272233
915.818	0.0280779
915.952	0.0280168
916.086	0.0277727
916.22	0.0272844
916.354	0.0280168
916.488	0.0278337
916.623	0.0272233
916.757	0.0275285
916.891	0.0278337
917.025	0.0275896
917.159	0.0285052
917.293	0.0279558
917.428	0.0277727
917.562	0.0279558
917.696	0.0277727
917.83	0.0278948
917.964	0.0272233
918.098	0.0279558
918.233	0.0278948
918.367	0.0281389
918.501	0.0273454
918.635	0.0281389
918.769	0.0284441
918.903	0.0271013
919.038	0.0278948
919.172	0.0272233
919.306	0.0269792
919.44	0.0279558
919.574	0.0269792
919.708	0.0277727
919.843	0.0281389
919.977	0.0272233
920.111	0.0276506
920.245	0.0271623
920.379	0.0272233
920.513	0.0278948
920.648	0.0278337
920.782	0.0281389
920.916	0.0271623
921.05	0.0277117
921.184	0.0285662
921.318	0.0278948
921.453	0.0274675
921.587	0.0274065
921.721	0.0278948
921.855	0.0291766
921.989	0.0274065
922.123	0.0284441
922.257	0.0280168
922.392	0.0279558
922.526	0.026735
922.66	0.0274065
922.794	0.0280779
922.928	0.0284441
923.062	0.0273454
923.197	0.0275896
923.331	0.0271013
923.465	0.0278948
923.599	0.0281389
923.733	0.0281389
923.867	0.0271623
924.001	0.0283831
924.136	0.0274065
924.27	0.0274065
924.404	0.0274065
924.538	0.0276506
924.672	0.0277117
924.806	0.0279558
924.94	0.0278337
925.075	0.0279558
925.209	0.0276506
925.343	0.0277727
925.477	0.0276506
925.611	0.0275285
925.745	0.0277117
925.879	0.0276506
926.014	0.0278337
926.148	0.0274675
926.282	0.0276506
926.416	0.0278337
926.55	0.0271623
926.684	0.0279558
926.818	0.0280779
926.953	0.028261
927.087	0.0279558
927.221	0.0274675
927.355	0.0280779
927.489	0.0273454
927.623	0.0279558
927.757	0.0274675
927.892	0.0275285
928.026	0.0278948
928.16	0.0285662
928.294	0.028322
928.428	0.0272233
928.562	0.028322
928.696	0.0275896
928.831	0.0286883
928.965	0.0279558
929.099	0.0284441
929.233	0.0276506
929.367	0.0263688
929.501	0.0280779
929.635	0.0279558
929.769	0.0274675
929.904	0.0277727
930.038	0.0279558
930.172	0.0286272
930.306	0.0282
930.44	0.0275896
930.574	0.0281389
930.708	0.0283831
930.843	0.0282
930.977	0.0286883
931.111	0.0273454
931.245	0.0278337
931.379	0.0284441
931.513	0.0280779
931.647	0.028322
931.781	0.0274675
931.916	0.0286272
932.05	0.0280779
932.184	0.0285052
932.318	0.0285052
932.452	0.0285662
932.586	0.0274675
932.72	0.0269792
932.854	0.0275285
932.989	0.0274675
933.123	0.028261
933.257	0.0271623
933.391	0.0288714
933.525	0.0278948
933.659	0.0284441
933.793	0.0277727
933.927	0.0277117
934.061	0.0275285
934.196	0.0288104
934.33	0.0275896
934.464	0.0277117
934.598	0.0272844
934.732	0.0272233
934.866	0.028322
935	0.0276506
935.134	0.0269792
935.269	0.0267961
935.403	0.0280168
935.537	0.0278948
935.671	0.0268571
935.805	0.0278948
935.939	0.0277727
936.073	0.0274065
936.207	0.0275285
936.341	0.0275285
936.476	0.028261
936.61	0.0281389
936.744	0.0277727
936.878	0.0274065
937.012	0.0272233
937.146	0.0284441
937.28	0.0272233
937.414	0.0288714
937.548	0.0280168
937.683	0.0267961
937.817	0.0272844
937.951	0.0275285
938.085	0.028261
938.219	0.0283831
938.353	0.0272233
938.487	0.0274675
938.621	0.0281389
938.755	0.0286883
938.889	0.0281389
939.024	0.026735
939.158	0.0278948
939.292	0.0270402
939.426	0.0283831
939.56	0.0283831
939.694	0.0274675
939.828	0.0279558
939.962	0.0285052
940.096	0.0269792
940.231	0.0274675
940.365	0.0272844
940.499	0.0275285
940.633	0.0277117
940.767	0.0277117
940.901	0.0286272
941.035	0.0272233
941.169	0.0272844
941.303	0.0271623
941.437	0.0272844
941.571	0.0276506
941.706	0.0273454
941.84	0.0275285
941.974	0.0280168
942.108	0.0282
942.242	0.0274675
942.376	0.0278337
942.51	0.0274675
942.644	0.0272844
942.778	0.0286272
942.912	0.0270402
943.047	0.0279558
943.181	0.0280168
943.315	0.0276506
943.449	0.0279558
943.583	0.0272233
943.717	0.0279558
943.851	0.0286272
943.985	0.0272844
944.119	0.0276506
944.253	0.0288714
944.387	0.0278337
944.522	0.0281389
944.656	0.0272844
944.79	0.0273454
944.924	0.0269181
945.058	0.0278337
945.192	0.0275896
945.326	0.0275285
945.46	0.028261
945.594	0.028322
945.728	0.0276506
945.862	0.0285052
945.996	0.0281389
946.131	0.0283831
946.265	0.0273454
946.399	0.0276506
946.533	0.0280168
946.667	0.0278337
946.801	0.0285662
946.935	0.0277727
947.069	0.0285052
947.203	0.0280168
947.337	0.028322
947.471	0.0273454
947.605	0.0278337
947.739	0.0274675
947.874	0.0278337
948.008	0.0271623
948.142	0.0273454
948.276	0.0272844
948.41	0.0272233
948.544	0.0280779
948.678	0.0277727
948.812	0.0280168
948.946	0.028261
949.08	0.0275285
949.214	0.0273454
949.348	0.0284441
949.482	0.0280168
949.617	0.028322
949.751	0.0277117
949.885	0.0283831
950.019	0.0272233
950.153	0.0280168
950.287	0.0277117
950.421	0.0272233
950.555	0.0280779
950.689	0.0278948
950.823	0.0279558
950.957	0.0275896
951.091	0.0278337
951.225	0.0282
951.359	0.0277727
951.493	0.0279558
951.628	0.0281389
951.762	0.026735
951.896	0.0275896
952.03	0.0272233
952.164	0.0277727
952.298	0.0275285
952.432	0.0271013
952.566	0.0275285
952.7	0.028322
952.834	0.0287493
952.968	0.0274065
953.102	0.0279558
953.236	0.0286272
953.37	0.0279558
953.504	0.0284441
953.639	0.0269181
953.773	0.0283831
953.907	0.0281389
954.041	0.0275896
954.175	0.028261
954.309	0.0278948
954.443	0.0272844
954.577	0.0276506
954.711	0.0275896
954.845	0.0284441
954.979	0.0271623
955.113	0.0277117
955.247	0.0274675
955.381	0.0283831
955.515	0.0277117
955.649	0.0273454
955.783	0.0274065
955.917	0.028261
956.052	0.0280168
956.186	0.0279558
956.32	0.0281389
956.454	0.0272844
956.588	0.0275285
956.722	0.0271623
956.856	0.0278337
956.99	0.0271623
957.124	0.0280168
957.258	0.0274675
957.392	0.0276506
957.526	0.0274675
957.66	0.0273454
957.794	0.0285662
957.928	0.0277117
958.062	0.0273454
958.196	0.0275285
958.33	0.0274675
958.464	0.028322
958.598	0.0277727
958.733	0.0273454
958.867	0.0280779
959.001	0.0277117
959.135	0.0285662
959.269	0.0272233
959.403	0.0275285
959.537	0.0275285
959.671	0.0280779
959.805	0.028261
959.939	0.0276506
960.073	0.0271013
960.207	0.0276506
960.341	0.0281389
960.475	0.0277117
960.609	0.0278337
960.743	0.0281389
960.877	0.0282
961.011	0.0278948
961.145	0.0274065
961.279	0.0279558
961.413	0.0271623
961.547	0.0272844
961.681	0.0269792
961.815	0.0278337
961.949	0.0280168
962.083	0.0277117
962.218	0.0281389
962.352	0.0278337
962.486	0.0280168
962.62	0.028322
962.754	0.0285662
962.888	0.0272233
963.022	0.0278948
963.156	0.0283831
963.29	0.0277727
963.424	0.0280168
963.558	0.0278337
963.692	0.0275285
963.826	0.0272233
963.96	0.0277117
964.094	0.0278948
964.228	0.0277117
964.362	0.0275896
964.496	0.0265519
964.63	0.0277727
964.764	0.0285662
964.898	0.0275896
965.032	0.0280779
965.166	0.0285052
965.3	0.0280168
965.434	0.0275285
965.568	0.0272844
965.702	0.0274065
965.836	0.0284441
965.97	0.0276506
966.104	0.0284441
966.238	0.0279558
966.372	0.0280168
966.506	0.0274065
966.64	0.0281389
966.774	0.028261
966.908	0.0280168
967.043	0.0277727
967.177	0.0286883
967.311	0.0280168
967.445	0.0286883
967.579	0.0277117
967.713	0.0282
967.847	0.0273454
967.981	0.0285662
968.115	0.0275896
968.249	0.0277117
968.383	0.0275896
968.517	0.0272233
968.651	0.0285052
968.785	0.0273454
968.919	0.0275285
969.053	0.0277117
969.187	0.0280779
969.321	0.0279558
969.455	0.0283831
969.589	0.0285662
969.723	0.0281389
969.857	0.0275896
969.991	0.0275896
970.125	0.0276506
970.259	0.028261
970.393	0.0272844
970.527	0.0277117
970.661	0.0272233
970.795	0.0278948
970.929	0.0278948
971.063	0.0279558
971.197	0.0274065
971.331	0.0275896
971.465	0.0271623
971.599	0.0275285
971.733	0.0278337
971.867	0.0280168
972.001	0.0279558
972.135	0.0275896
972.269	0.0278948
972.403	0.0269181
972.537	0.0269792
972.671	0.028261
972.805	0.0280779
972.939	0.0275896
973.073	0.0274065
973.207	0.0271623
973.341	0.0278948
973.475	0.0276506
973.609	0.0275896
973.743	0.0286272
973.877	0.0278948
974.011	0.0278948
974.145	0.0268571
974.279	0.028261
974.413	0.028322
974.547	0.026613
974.681	0.0271013
974.815	0.0275896
974.949	0.0279558
975.083	0.0271013
975.217	0.0276506
975.351	0.0284441
975.485	0.0277727
975.619	0.0270402
975.753	0.0272844
975.887	0.0277117
976.021	0.0280168
976.155	0.0272844
976.289	0.0279558
976.423	0.0278337
976.557	0.0277117
976.691	0.0274675
976.825	0.0284441
976.959	0.0278948
977.093	0.0274675
977.227	0.0275896
977.361	0.0285052
977.495	0.0269792
977.629	0.0280168
977.763	0.0280168
977.897	0.0272233
978.031	0.0271013
978.165	0.0272233
978.299	0.028322
978.433	0.0276506
978.567	0.0278948
978.701	0.0282
978.835	0.0278948
978.969	0.0277117
979.103	0.0265519
979.237	0.0267961
979.371	0.0283831
979.505	0.0282
979.639	0.0280168
979.773	0.0282
979.907	0.0269181
980.041	0.0280779
980.175	0.0278337
980.308	0.028261
980.442	0.0279558
980.576	0.0275896
980.71	0.0278948
980.844	0.0275896
980.978	0.0282
981.112	0.0275285
981.246	0.0278337
981.38	0.0277727
981.514	0.0275896
981.648	0.0277117
981.782	0.0274675
981.916	0.0268571
982.05	0.0285052
982.184	0.0283831
982.318	0.0286272
982.452	0.0283831
982.586	0.0275896
982.72	0.0276506
982.854	0.0275896
982.988	0.0274675
983.122	0.0275285
983.256	0.0277117
983.39	0.0274065
983.524	0.0277117
983.658	0.028322
983.792	0.0274065
983.926	0.0271013
984.06	0.0272233
984.194	0.0271013
984.328	0.0270402
984.462	0.0288714
984.596	0.0280168
984.73	0.0269792
984.864	0.0280779
984.998	0.0279558
985.132	0.0279558
985.265	0.0288714
985.399	0.0277727
985.533	0.0275896
985.667	0.0278948
985.801	0.0289324
985.935	0.0273454
986.069	0.0271013
986.203	0.0276506
986.337	0.0270402
986.471	0.0270402
986.605	0.0269181
986.739	0.0277117
986.873	0.0286272
987.007	0.0280779
987.141	0.0279558
987.275	0.0285662
987.409	0.0278948
987.543	0.0272844
987.677	0.0271013
987.811	0.0287493
987.945	0.0271623
988.079	0.0275285
988.213	0.0277727
988.347	0.0278948
988.481	0.0287493
988.614	0.0279558
988.748	0.0288104
988.882	0.0274065
989.016	0.0284441
989.15	0.0287493
989.284	0.0278948
989.418	0.0280779
989.552	0.028322
989.686	0.0274675
989.82	0.0280168
989.954	0.0277727
990.088	0.0275896
990.222	0.0278948
990.356	0.0277727
990.49	0.0278948
990.624	0.0276506
990.758	0.0277727
990.892	0.0274675
991.026	0.028261
991.16	0.0281389
991.294	0.0272233
991.427	0.0281389
991.561	0.0278948
991.695	0.0284441
991.829	0.0275285
991.963	0.0273454
992.097	0.028261
992.231	0.0275896
992.365	0.0278948
992.499	0.0278337
992.633	0.0275285
992.767	0.0268571
992.901	0.0284441
993.035	0.0273454
993.169	0.0283831
993.303	0.0275896
993.437	0.0289324
993.571	0.0280779
993.704	0.0280168
993.838	0.0278948
993.972	0.0275896
994.106	0.0277117
994.24	0.0279558
994.374	0.026674
994.508	0.0278948
994.642	0.0286272
994.776	0.0285662
994.91	0.0278337
995.044	0.0283831
995.178	0.0276506
995.312	0.0281389
995.446	0.0281389
995.58	0.0286883
995.714	0.0280779
995.847	0.0274675
995.981	0.0280168
996.115	0.0284441
996.249	0.0270402
996.383	0.028261
996.517	0.0282
996.651	0.0270402
996.785	0.0268571
996.919	0.0289324
997.053	0.0285052
997.187	0.0272233
997.321	0.0282
997.455	0.0269181
997.589	0.0278337
997.722	0.0271013
997.856	0.0274675
997.99	0.0274065
998.124	0.028322
998.258	0.0277117
998.392	0.0275896
998.526	0.0275896
998.66	0.0274675
998.794	0.0276506
998.928	0.0270402
999.062	0.0282
999.196	0.028322
999.33	0.0283831
999.464	0.0275896
999.597	0.0278948
999.731	0.0273454
999.865	0.0282
999.999	0.0285052
1000.13	0.0280779
1000.27	0.0277117
1000.4	0.0285052
1000.53	0.0279558
1000.67	0.0278337
1000.8	0.0272233
1000.94	0.0277117
1001.07	0.0287493
1001.2	0.0272844
1001.34	0.0272844
1001.47	0.026674
1001.61	0.0277727
1001.74	0.0280779
1001.87	0.0281389
1002.01	0.0271623
1002.14	0.0282
1002.28	0.0274675
1002.41	0.0277727
1002.54	0.0277727
1002.68	0.0278948
1002.81	0.0282
1002.95	0.0278337
1003.08	0.0275896
1003.21	0.0272844
1003.35	0.0276506
1003.48	0.0270402
1003.61	0.0282
1003.75	0.0276506
1003.88	0.0277117
1004.02	0.0275285
1004.15	0.0280779
1004.28	0.0274675
1004.42	0.0281389
1004.55	0.0272233
1004.69	0.0275285
1004.82	0.0286272
1004.95	0.0280168
1005.09	0.0277117
1005.22	0.0286272
1005.36	0.0273454
1005.49	0.0276506
1005.62	0.0277727
1005.76	0.0277117
1005.89	0.0280779
1006.03	0.0282
1006.16	0.0272844
1006.29	0.0279558
1006.43	0.0280779
1006.56	0.0274675
1006.69	0.0276506
1006.83	0.0278337
1006.96	0.0277727
1007.1	0.0284441
1007.23	0.0274675
1007.36	0.0274675
1007.5	0.0289935
1007.63	0.0274675
1007.77	0.0277117
1007.9	0.0270402
1008.03	0.0276506
1008.17	0.0279558
1008.3	0.0272844
1008.44	0.0281389
1008.57	0.0274675
1008.7	0.0286883
1008.84	0.0278948
1008.97	0.0276506
1009.1	0.0269181
1009.24	0.0274065
1009.37	0.0277727
1009.51	0.0278337
1009.64	0.0280168
1009.77	0.0277727
1009.91	0.0280168
1010.04	0.0271013
1010.18	0.0277727
1010.31	0.0278948
1010.44	0.0275285
1010.58	0.0280779
1010.71	0.0284441
1010.85	0.0279558
1010.98	0.0278337
1011.11	0.0271623
1011.25	0.0287493
1011.38	0.0276506
1011.51	0.0280779
1011.65	0.0280168
1011.78	0.0279558
1011.92	0.0275896
1012.05	0.0281389
1012.18	0.0271623
1012.32	0.0280779
1012.45	0.0274675
1012.59	0.0282
1012.72	0.0278948
1012.85	0.0277117
1012.99	0.0276506
1013.12	0.0264909
1013.26	0.0286883
1013.39	0.0271623
1013.52	0.028322
1013.66	0.0269792
1013.79	0.0275896
1013.92	0.0275896
1014.06	0.0279558
1014.19	0.028322
1014.33	0.0277727
1014.46	0.0276506
1014.59	0.0281389
1014.73	0.0274065
1014.86	0.0281389
1015	0.0271013
1015.13	0.028322
1015.26	0.0269792
1015.4	0.0278948
1015.53	0.0279558
1015.67	0.0279558
1015.8	0.0285052
1015.93	0.0275896
1016.07	0.0282
1016.2	0.0282
1016.33	0.0274675
1016.47	0.0281389
1016.6	0.0277727
1016.74	0.0275896
1016.87	0.0278337
1017	0.0277727
1017.14	0.0280779
1017.27	0.0281389
1017.41	0.0281389
1017.54	0.0282
1017.67	0.0278948
1017.81	0.0272844
1017.94	0.0272233
1018.07	0.0278948
1018.21	0.028261
1018.34	0.0273454
1018.48	0.0280168
1018.61	0.0272844
1018.74	0.0272233
1018.88	0.0286272
1019.01	0.0282
1019.15	0.0273454
1019.28	0.0275285
1019.41	0.0282
1019.55	0.0277117
1019.68	0.0278948
1019.82	0.0278948
1019.95	0.0279558
1020.08	0.0275285
1020.22	0.0280168
1020.35	0.0278948
1020.48	0.0272233
1020.62	0.0278948
1020.75	0.0274675
1020.89	0.0280168
1021.02	0.0273454
1021.15	0.0278948
1021.29	0.0280168
1021.42	0.0278948
1021.56	0.0278337
1021.69	0.0284441
1021.82	0.0271013
1021.96	0.0271013
1022.09	0.0276506
1022.22	0.0272233
1022.36	0.0280779
1022.49	0.0275896
1022.63	0.0284441
1022.76	0.0278948
1022.89	0.0275285
1023.03	0.0275285
1023.16	0.0281389
1023.3	0.0276506
1023.43	0.028322
1023.56	0.0278948
1023.7	0.0285052
1023.83	0.0279558
1023.96	0.0280168
1024.1	0.0276506
1024.23	0.0275896
1024.37	0.0285662
1024.5	0.0275285
1024.63	0.0286883
1024.77	0.0268571
1024.9	0.0273454
1025.04	0.0282
1025.17	0.0277117
1025.3	0.0278948
1025.44	0.0275896
1025.57	0.0274675
1025.7	0.0280779
1025.84	0.0274675
1025.97	0.028322
1026.11	0.0288104
1026.24	0.0280168
1026.37	0.028261
1026.51	0.0272233
1026.64	0.0278948
1026.78	0.0277117
1026.91	0.0279558
1027.04	0.0274675
1027.18	0.0270402
1027.31	0.0275285
1027.44	0.0272233
1027.58	0.028322
1027.71	0.0279558
1027.85	0.0275896
1027.98	0.0279558
1028.11	0.0286883
1028.25	0.0282
1028.38	0.0286272
1028.52	0.0274065
1028.65	0.028261
1028.78	0.0281389
1028.92	0.0274065
1029.05	0.0274675
1029.18	0.0277727
1029.32	0.0278337
1029.45	0.0280779
1029.59	0.0274675
1029.72	0.0276506
1029.85	0.0274675
1029.99	0.0272844
1030.12	0.0277727
1030.26	0.0272233
1030.39	0.0275896
1030.52	0.0286272
1030.66	0.0279558
1030.79	0.0278337
1030.92	0.0274065
1031.06	0.0284441
1031.19	0.0271013
1031.33	0.0274675
1031.46	0.0282
1031.59	0.028322
1031.73	0.0277727
1031.86	0.0274675
1031.99	0.0277117
1032.13	0.0277117
1032.26	0.0278337
1032.4	0.0277117
1032.53	0.0278337
1032.66	0.0274065
1032.8	0.0282
1032.93	0.0278948
1033.07	0.0281389
1033.2	0.0277727
1033.33	0.0275896
1033.47	0.0269181
1033.6	0.0286883
1033.73	0.0271623
1033.87	0.0282
1034	0.0277727
1034.14	0.0280779
1034.27	0.0280779
1034.4	0.0277117
1034.54	0.028322
1034.67	0.0275285
1034.81	0.0277117
1034.94	0.0275896
1035.07	0.0277117
1035.21	0.0274065
1035.34	0.0278948
1035.47	0.0280168
1035.61	0.0275285
1035.74	0.0279558
1035.88	0.0278337
1036.01	0.0280168
1036.14	0.0280779
1036.28	0.0280779
1036.41	0.0280779
1036.54	0.0277117
1036.68	0.0272233
1036.81	0.0275896
1036.95	0.0277117
1037.08	0.028261
1037.21	0.0270402
1037.35	0.0286883
1037.48	0.0274675
1037.62	0.0273454
1037.75	0.026735
1037.88	0.0275896
1038.02	0.0285052
1038.15	0.0282
1038.28	0.0272233
1038.42	0.0277727
1038.55	0.0276506
1038.69	0.0280779
1038.82	0.0282
1038.95	0.0276506
1039.09	0.0280779
1039.22	0.0270402
1039.35	0.0274065
1039.49	0.0275896
1039.62	0.028322
1039.76	0.028322
1039.89	0.0286883
1040.02	0.0275896
1040.16	0.0275896
1040.29	0.0282
1040.43	0.0271013
1040.56	0.0274065
1040.69	0.0285662
1040.83	0.0276506
1040.96	0.0280168
1041.09	0.0284441
1041.23	0.0278948
1041.36	0.0278337
1041.5	0.0271623
1041.63	0.0275896
1041.76	0.026735
1041.9	0.0278337
1042.03	0.0276506
1042.16	0.0278337
1042.3	0.0280779
1042.43	0.0275285
1042.57	0.0276506
1042.7	0.0275896
1042.83	0.0278337
1042.97	0.0275896
1043.1	0.0271013
1043.23	0.0278337
1043.37	0.0280168
1043.5	0.0280779
1043.64	0.0278948
1043.77	0.0280168
1043.9	0.0283831
1044.04	0.0286883
1044.17	0.0277117
1044.31	0.0281389
1044.44	0.0274675
1044.57	0.028322
1044.71	0.0280779
1044.84	0.0278337
1044.97	0.0278337
1045.11	0.0272844
1045.24	0.0275896
1045.38	0.0278948
1045.51	0.028322
1045.64	0.0277117
1045.78	0.0277117
1045.91	0.0286883
1046.04	0.0272233
1046.18	0.0278337
1046.31	0.0275896
1046.45	0.0280168
1046.58	0.028322
1046.71	0.0275285
1046.85	0.0285052
1046.98	0.0277727
1047.11	0.0280168
1047.25	0.0279558
1047.38	0.0275896
1047.52	0.0271013
1047.65	0.0283831
1047.78	0.0281389
1047.92	0.0275285
1048.05	0.0276506
1048.18	0.0279558
1048.32	0.0275896
1048.45	0.0274675
1048.59	0.0278337
1048.72	0.0275285
1048.85	0.028322
1048.99	0.0274065
1049.12	0.0278337
1049.25	0.0282
1049.39	0.0278337
1049.52	0.0289935
1049.66	0.0276506
1049.79	0.0278337
1049.92	0.028322
1050.06	0.0289935
1050.19	0.0275896
1050.33	0.028261
1050.46	0.0273454
1050.59	0.0273454
1050.73	0.0275285
1050.86	0.0282
1050.99	0.0274065
1051.13	0.0277727
1051.26	0.028261
1051.4	0.0276506
1051.53	0.0274065
1051.66	0.0273454
1051.8	0.0282
1051.93	0.0268571
1052.06	0.0281389
1052.2	0.0280779
1052.33	0.0279558
1052.47	0.0284441
1052.6	0.0278337
1052.73	0.0277727
1052.87	0.0276506
1053	0.0275285
1053.13	0.0277117
1053.27	0.0275896
1053.4	0.0280779
1053.54	0.0283831
1053.67	0.028322
1053.8	0.0272233
1053.94	0.0280168
1054.07	0.0273454
1054.2	0.0280779
1054.34	0.0276506
1054.47	0.0276506
1054.61	0.0274675
1054.74	0.028322
1054.87	0.0277727
1055.01	0.0279558
1055.14	0.0273454
1055.27	0.0284441
1055.41	0.0278948
1055.54	0.028322
1055.68	0.0270402
1055.81	0.0272233
1055.94	0.0268571
1056.08	0.0271623
1056.21	0.0281389
1056.34	0.0277727
1056.48	0.0275896
1056.61	0.028261
1056.75	0.0279558
1056.88	0.0270402
1057.01	0.0269792
1057.15	0.0270402
1057.28	0.0275285
1057.41	0.0271013
1057.55	0.0274675
1057.68	0.0272844
1057.82	0.0277117
1057.95	0.0276506
1058.08	0.0279558
1058.22	0.028261
1058.35	0.0271623
1058.48	0.0282
1058.62	0.0269181
1058.75	0.0277117
1058.89	0.0273454
1059.02	0.0275896
1059.15	0.0277727
1059.29	0.0280779
1059.42	0.0278337
1059.55	0.0287493
1059.69	0.0278948
1059.82	0.0276506
1059.96	0.0278337
1060.09	0.0271623
1060.22	0.0267961
1060.36	0.0288104
1060.49	0.0278948
1060.62	0.0283831
1060.76	0.0274065
1060.89	0.0284441
1061.03	0.0269181
1061.16	0.0275285
1061.29	0.0277727
1061.43	0.0275896
1061.56	0.0279558
1061.69	0.0277117
1061.83	0.0274065
1061.96	0.0279558
1062.1	0.0278337
1062.23	0.0273454
1062.36	0.0270402
1062.5	0.0274675
1062.63	0.0277727
1062.76	0.0274675
1062.9	0.0274065
1063.03	0.0263688
1063.17	0.0276506
1063.3	0.0277117
1063.43	0.0276506
1063.57	0.0273454
1063.7	0.0280779
1063.83	0.0285662
1063.97	0.0279558
1064.1	0.0269181
1064.23	0.0277727
1064.37	0.0277727
1064.5	0.0277727
1064.64	0.0275285
1064.77	0.0285662
1064.9	0.0276506
1065.04	0.0267961
1065.17	0.028261
1065.3	0.0274065
1065.44	0.0284441
1065.57	0.0287493
1065.71	0.026674
1065.84	0.0277727
1065.97	0.0275896
1066.11	0.0276506
1066.24	0.0281389
1066.37	0.0279558
1066.51	0.0280168
1066.64	0.0285052
1066.78	0.0274675
1066.91	0.0274675
1067.04	0.0278948
1067.18	0.0275285
1067.31	0.0277727
1067.44	0.0289935
1067.58	0.0275896
1067.71	0.0271013
1067.85	0.0274065
1067.98	0.0286272
1068.11	0.0275285
1068.25	0.0275285
1068.38	0.0274065
1068.51	0.0271013
1068.65	0.0270402
1068.78	0.0272233
1068.92	0.0273454
1069.05	0.0272844
1069.18	0.0282
1069.32	0.0279558
1069.45	0.0279558
1069.58	0.028322
1069.72	0.0280779
1069.85	0.0277117
1069.98	0.0285662
1070.12	0.0271623
1070.25	0.0277727
1070.39	0.026735
1070.52	0.0277727
1070.65	0.0279558
1070.79	0.0275285
1070.92	0.0273454
1071.05	0.028261
1071.19	0.0285662
1071.32	0.0281389
1071.46	0.0277117
1071.59	0.0283831
1071.72	0.028261
1071.86	0.0275285
1071.99	0.0281389
1072.12	0.0280779
1072.26	0.0268571
1072.39	0.0277727
1072.53	0.028322
1072.66	0.0286883
1072.79	0.0271623
1072.93	0.0277727
1073.06	0.0280168
1073.19	0.0271013
1073.33	0.0278948
1073.46	0.0282
1073.59	0.026613
1073.73	0.0276506
1073.86	0.0273454
1074	0.0274675
1074.13	0.0272844
1074.26	0.0273454
1074.4	0.0282
1074.53	0.0271623
1074.66	0.0274065
1074.8	0.0280779
1074.93	0.0280168
1075.07	0.0275896
1075.2	0.028261
1075.33	0.0269181
1075.47	0.0275285
1075.6	0.0278337
1075.73	0.0278337
1075.87	0.0277727
1076	0.0273454
1076.14	0.0277727
1076.27	0.0277727
1076.4	0.0275285
1076.54	0.0273454
1076.67	0.028261
1076.8	0.028322
1076.94	0.0276506
1077.07	0.0287493
1077.2	0.0268571
1077.34	0.0267961
1077.47	0.0269792
1077.61	0.028261
1077.74	0.0275896
1077.87	0.0264298
1078.01	0.0274675
1078.14	0.0282
1078.27	0.0277727
1078.41	0.0275896
1078.54	0.0280168
1078.68	0.0278337
1078.81	0.0272844
1078.94	0.0282
1079.08	0.0269792
1079.21	0.0273454
1079.34	0.0280779
1079.48	0.0276506
1079.61	0.0285662
1079.74	0.028261
1079.88	0.0282
1080.01	0.0285662
1080.15	0.0269181
1080.28	0.0274675
1080.41	0.0279558
1080.55	0.0273454
1080.68	0.0274675
1080.81	0.0277117
1080.95	0.0276506
1081.08	0.0275285
1081.22	0.0281389
1081.35	0.0272844
1081.48	0.0285052
1081.62	0.0280779
1081.75	0.0281389
1081.88	0.0271623
1082.02	0.0263688
1082.15	0.0280779
1082.28	0.0274675
1082.42	0.0275896
1082.55	0.0274065
1082.69	0.0271013
1082.82	0.0274675
1082.95	0.0280779
1083.09	0.0280779
1083.22	0.0271013
1083.35	0.0275285
1083.49	0.0279558
1083.62	0.0275285
1083.75	0.0274675
1083.89	0.0275896
1084.02	0.0269181
1084.16	0.0282
1084.29	0.0274065
1084.42	0.0279558
1084.56	0.0271013
1084.69	0.0277117
1084.82	0.0278337
1084.96	0.0276506
1085.09	0.0275285
1085.23	0.0284441
1085.36	0.0275285
1085.49	0.0274675
1085.63	0.0282
1085.76	0.0272844
1085.89	0.0280168
1086.03	0.0277727
1086.16	0.0280779
1086.29	0.0272844
1086.43	0.0278337
1086.56	0.0271623
1086.7	0.0278948
1086.83	0.0276506
1086.96	0.0272233
1087.1	0.0274675
1087.23	0.0275896
1087.36	0.0271013
1087.5	0.0277117
1087.63	0.0274065
1087.76	0.0280779
1087.9	0.0272844
1088.03	0.0282
1088.17	0.0282
1088.3	0.0277117
1088.43	0.0285052
1088.57	0.0264909
1088.7	0.0277117
1088.83	0.0281389
1088.97	0.0275285
1089.1	0.0280168
1089.24	0.0280779
1089.37	0.0275896
1089.5	0.0274065
1089.64	0.0270402
1089.77	0.0277727
1089.9	0.0271013
1090.04	0.0277117
1090.17	0.0277117
1090.3	0.028261
1090.44	0.0276506
1090.57	0.0273454
1090.71	0.0281389
1090.84	0.0274065
1090.97	0.0275896
1091.11	0.0271013
1091.24	0.0281389
1091.37	0.0282
1091.51	0.0282
1091.64	0.0278337
1091.77	0.0280779
1091.91	0.0278337
1092.04	0.026735
1092.18	0.0272233
1092.31	0.0280779
1092.44	0.0280168
1092.58	0.0277727
1092.71	0.0283831
1092.84	0.0277727
1092.98	0.028322
1093.11	0.0277117
1093.24	0.0275896
1093.38	0.0280168
1093.51	0.0282
1093.65	0.0284441
1093.78	0.0280168
1093.91	0.0272844
1094.05	0.0277117
1094.18	0.0274065
1094.31	0.0275896
1094.45	0.0276506
1094.58	0.0275285
1094.71	0.0278948
1094.85	0.0285662
1094.98	0.0272844
1095.12	0.0272233
1095.25	0.0282
1095.38	0.0278337
1095.52	0.028261
1095.65	0.0272844
1095.78	0.0286883
1095.92	0.0272233
1096.05	0.0271013
1096.18	0.0285662
1096.32	0.0278337
1096.45	0.0282
1096.59	0.028261
1096.72	0.0277117
1096.85	0.0282
1096.99	0.0284441
1097.12	0.0278948
1097.25	0.0274675
1097.39	0.0281389
1097.52	0.0277727
1097.65	0.0280779
1097.79	0.0281389
1097.92	0.0269792
1098.06	0.0273454
1098.19	0.0280779
1098.32	0.0292376
1098.46	0.028322
1098.59	0.0275896
1098.72	0.0279558
1098.86	0.0271013
1098.99	0.0275285
1099.12	0.0274675
1099.26	0.0285052
1099.39	0.026735
1099.53	0.0275896
1099.66	0.0280168
1099.79	0.0271013
1099.93	0.0272844
1100.06	0.0273454
1100.19	0.0278337
1100.33	0.0277117
1100.46	0.0272233
1100.59	0.0276506
1100.73	0.0279558
1100.86	0.0280779
1100.99	0.0274065
1101.13	0.0269792
1101.26	0.0277117
1101.4	0.028261
1101.53	0.0271013
1101.66	0.0275896
1101.8	0.0277117
1101.93	0.0270402
1102.06	0.028322
1102.2	0.0275285
1102.33	0.0280168
1102.46	0.0274065
1102.6	0.0277117
1102.73	0.0277727
1102.87	0.0280168
1103	0.0277727
1103.13	0.0280779
1103.27	0.0274065
1103.4	0.0275285
1103.53	0.0280168
1103.67	0.026613
1103.8	0.0272233
1103.93	0.0277117
1104.07	0.0279558
1104.2	0.0278948
1104.34	0.0271013
1104.47	0.0275896
1104.6	0.0274675
1104.74	0.0273454
1104.87	0.0278337
1105	0.0284441
1105.14	0.0275896
1105.27	0.0269792
1105.4	0.0281389
1105.54	0.0276506
1105.67	0.028322
1105.8	0.0277727
1105.94	0.0275285
1106.07	0.0283831
1106.21	0.0278948
1106.34	0.0277727
1106.47	0.0279558
1106.61	0.028261
1106.74	0.0269792
1106.87	0.0288714
1107.01	0.0275285
1107.14	0.0287493
1107.27	0.0272844
1107.41	0.0278948
1107.54	0.0280168

