Source: Spectrum Viewer

Chart: Pulse Spectrum

Series: 
Wavelength (nm)	S (a.u.)
617.638	0.0385513
617.773	0.0389835
617.908	0.0398479
618.043	0.0392428
618.178	0.0385513
618.313	0.0390699
618.448	0.0391564
618.583	0.0400207
618.718	0.0390699
618.853	0.0395886
618.988	0.0393292
619.123	0.0395021
619.258	0.0400207
619.394	0.0394157
619.529	0.0391564
619.664	0.0398479
619.799	0.0393292
619.934	0.039675
620.069	0.0388971
620.204	0.0390699
620.339	0.0404529
620.474	0.0386377
620.609	0.0389835
620.744	0.0407122
620.879	0.0389835
621.014	0.039675
621.149	0.0386377
621.284	0.0401072
621.419	0.0390699
621.554	0.0393292
621.689	0.0399343
621.825	0.0383784
621.96	0.039675
622.095	0.0392428
622.23	0.0392428
622.365	0.0392428
622.5	0.0399343
622.635	0.0395886
622.77	0.0399343
622.905	0.0390699
623.04	0.0406258
623.175	0.0382055
623.31	0.0409716
623.445	0.0403665
623.58	0.0391564
623.715	0.0386377
623.85	0.0402801
623.985	0.0390699
624.12	0.0404529
624.255	0.0394157
624.39	0.0398479
624.525	0.0403665
624.661	0.0391564
624.796	0.0388971
624.931	0.0390699
625.066	0.0397614
625.201	0.0392428
625.336	0.0386377
625.471	0.0392428
625.606	0.0391564
625.741	0.038292
625.876	0.039675
626.011	0.0390699
626.146	0.0392428
626.281	0.0389835
626.416	0.0379462
626.551	0.0388106
626.686	0.0389835
626.821	0.0383784
626.956	0.0381191
627.091	0.0386377
627.226	0.0408851
627.361	0.0389835
627.496	0.0391564
627.631	0.0399343
627.766	0.0406258
627.901	0.039675
628.036	0.0390699
628.171	0.0383784
628.307	0.0388971
628.442	0.0400207
628.577	0.0392428
628.712	0.0393292
628.847	0.0388106
628.982	0.0398479
629.117	0.0384649
629.252	0.0390699
629.387	0.0407122
629.522	0.0398479
629.657	0.0383784
629.792	0.0384649
629.927	0.0388971
630.062	0.0385513
630.197	0.0394157
630.332	0.0395886
630.467	0.0386377
630.602	0.0383784
630.737	0.0406258
630.872	0.0395021
631.007	0.0394157
631.142	0.0392428
631.277	0.0387242
631.412	0.0401936
631.547	0.0397614
631.682	0.0395886
631.817	0.0388971
631.952	0.0392428
632.087	0.0392428
632.222	0.0395021
632.357	0.0391564
632.492	0.0399343
632.627	0.039675
632.762	0.0400207
632.897	0.0391564
633.032	0.0395886
633.167	0.0398479
633.302	0.0379462
633.437	0.0394157
633.572	0.0384649
633.707	0.038292
633.842	0.0400207
633.978	0.0384649
634.113	0.0398479
634.248	0.0388971
634.383	0.0400207
634.518	0.0397614
634.653	0.0387242
634.788	0.0393292
634.923	0.0399343
635.058	0.0390699
635.193	0.0386377
635.328	0.0393292
635.463	0.0389835
635.598	0.0382055
635.733	0.0400207
635.868	0.0398479
636.003	0.0403665
636.138	0.0388106
636.273	0.0397614
636.408	0.0392428
636.543	0.0407122
636.678	0.0387242
636.813	0.0382055
636.948	0.0393292
637.083	0.0384649
637.218	0.0395886
637.353	0.0390699
637.488	0.0384649
637.623	0.0395886
637.758	0.0386377
637.893	0.0394157
638.028	0.0382055
638.163	0.0389835
638.298	0.0376005
638.433	0.0385513
638.568	0.0397614
638.703	0.0390699
638.838	0.0398479
638.973	0.0392428
639.108	0.0390699
639.243	0.0383784
639.378	0.0388106
639.513	0.039675
639.648	0.0385513
639.783	0.039675
639.918	0.0393292
640.053	0.0390699
640.188	0.0389835
640.323	0.0390699
640.458	0.0385513
640.593	0.0393292
640.728	0.0394157
640.863	0.0390699
640.998	0.0388106
641.133	0.0398479
641.268	0.0405394
641.403	0.0388106
641.538	0.0388106
641.673	0.0398479
641.808	0.038292
641.943	0.038292
642.078	0.0401936
642.213	0.0389835
642.348	0.0402801
642.483	0.0390699
642.618	0.0393292
642.753	0.0395021
642.888	0.0406258
643.023	0.0386377
643.158	0.038292
643.293	0.0401072
643.428	0.0401072
643.563	0.0397614
643.698	0.0399343
643.833	0.0392428
643.968	0.0389835
644.103	0.0391564
644.237	0.0389835
644.372	0.0388971
644.507	0.0387242
644.642	0.0388971
644.777	0.0382055
644.912	0.039675
645.047	0.0403665
645.182	0.039675
645.317	0.0387242
645.452	0.0389835
645.587	0.0390699
645.722	0.0397614
645.857	0.0393292
645.992	0.039675
646.127	0.0386377
646.262	0.0393292
646.397	0.0400207
646.532	0.0394157
646.667	0.0392428
646.802	0.0384649
646.937	0.0388971
647.072	0.0391564
647.207	0.0382055
647.342	0.0392428
647.477	0.0389835
647.612	0.039675
647.747	0.0388971
647.882	0.0400207
648.017	0.0397614
648.152	0.0388971
648.287	0.0388971
648.422	0.0383784
648.557	0.0389835
648.692	0.0393292
648.827	0.0391564
648.962	0.0395886
649.097	0.0400207
649.232	0.0382055
649.367	0.038292
649.502	0.0400207
649.637	0.0407122
649.772	0.0390699
649.906	0.0399343
650.041	0.0384649
650.176	0.038292
650.311	0.0400207
650.446	0.0392428
650.581	0.0394157
650.716	0.0389835
650.851	0.0399343
650.986	0.0398479
651.121	0.0406258
651.256	0.0388106
651.391	0.0400207
651.526	0.0387242
651.661	0.0386377
651.796	0.0391564
651.931	0.0383784
652.066	0.0403665
652.201	0.038292
652.336	0.0405394
652.471	0.0386377
652.606	0.0389835
652.741	0.0393292
652.876	0.0390699
653.011	0.0385513
653.146	0.0394157
653.281	0.0390699
653.415	0.0385513
653.55	0.0401072
653.685	0.0384649
653.82	0.0392428
653.955	0.0392428
654.09	0.0405394
654.225	0.0401936
654.36	0.0397614
654.495	0.0387242
654.63	0.0387242
654.765	0.0385513
654.9	0.0399343
655.035	0.0385513
655.17	0.0399343
655.305	0.0389835
655.44	0.0399343
655.575	0.0392428
655.71	0.0395886
655.845	0.0394157
655.98	0.0398479
656.115	0.0398479
656.25	0.0400207
656.384	0.0395886
656.519	0.0393292
656.654	0.0386377
656.789	0.0398479
656.924	0.0391564
657.059	0.0389835
657.194	0.0395021
657.329	0.0388971
657.464	0.0399343
657.599	0.039675
657.734	0.0391564
657.869	0.0400207
658.004	0.0387242
658.139	0.0393292
658.274	0.0389835
658.409	0.0376005
658.544	0.0392428
658.679	0.0399343
658.813	0.0402801
658.948	0.0395886
659.083	0.0398479
659.218	0.0392428
659.353	0.0395021
659.488	0.0389835
659.623	0.0390699
659.758	0.0395886
659.893	0.0397614
660.028	0.0388106
660.163	0.0395021
660.298	0.0394157
660.433	0.039675
660.568	0.0388971
660.703	0.0400207
660.838	0.0385513
660.972	0.0382055
661.107	0.0394157
661.242	0.0395021
661.377	0.0393292
661.512	0.0378598
661.647	0.0391564
661.782	0.0391564
661.917	0.039675
662.052	0.0407122
662.187	0.0398479
662.322	0.0401072
662.457	0.0388971
662.592	0.0400207
662.727	0.0386377
662.862	0.0402801
662.996	0.0388971
663.131	0.0389835
663.266	0.0391564
663.401	0.0391564
663.536	0.0395886
663.671	0.0400207
663.806	0.0401072
663.941	0.0399343
664.076	0.0395021
664.211	0.0391564
664.346	0.0393292
664.481	0.0388971
664.616	0.0382055
664.75	0.0403665
664.885	0.0409716
665.02	0.0386377
665.155	0.0398479
665.29	0.0388971
665.425	0.0400207
665.56	0.0387242
665.695	0.0399343
665.83	0.0386377
665.965	0.0388106
666.1	0.039675
666.235	0.0400207
666.37	0.0394157
666.504	0.0398479
666.639	0.0395021
666.774	0.0381191
666.909	0.0391564
667.044	0.0386377
667.179	0.0380327
667.314	0.0395886
667.449	0.0395021
667.584	0.0395021
667.719	0.0389835
667.854	0.0401936
667.989	0.0395886
668.123	0.0388971
668.258	0.0400207
668.393	0.0395021
668.528	0.0381191
668.663	0.0405394
668.798	0.0395021
668.933	0.0393292
669.068	0.0378598
669.203	0.0383784
669.338	0.039675
669.473	0.0388106
669.607	0.0394157
669.742	0.0384649
669.877	0.0393292
670.012	0.039675
670.147	0.0392428
670.282	0.0397614
670.417	0.0395021
670.552	0.0394157
670.687	0.0391564
670.822	0.0401072
670.957	0.038292
671.091	0.0389835
671.226	0.0400207
671.361	0.0399343
671.496	0.0380327
671.631	0.0388106
671.766	0.0401936
671.901	0.0397614
672.036	0.0395021
672.171	0.0391564
672.306	0.0400207
672.44	0.0400207
672.575	0.0391564
672.71	0.0394157
672.845	0.0394157
672.98	0.039675
673.115	0.0401936
673.25	0.0398479
673.385	0.0388106
673.52	0.0386377
673.655	0.0395886
673.789	0.0392428
673.924	0.0393292
674.059	0.0387242
674.194	0.0391564
674.329	0.0379462
674.464	0.0392428
674.599	0.0407987
674.734	0.0395886
674.869	0.0401072
675.003	0.0400207
675.138	0.038292
675.273	0.0386377
675.408	0.0384649
675.543	0.0387242
675.678	0.0385513
675.813	0.0395021
675.948	0.0388971
676.083	0.0390699
676.217	0.0386377
676.352	0.0391564
676.487	0.0395021
676.622	0.0384649
676.757	0.0401072
676.892	0.0398479
677.027	0.0386377
677.162	0.0385513
677.297	0.039675
677.431	0.039675
677.566	0.0383784
677.701	0.0394157
677.836	0.0388971
677.971	0.038292
678.106	0.0395021
678.241	0.0399343
678.376	0.0397614
678.511	0.0404529
678.645	0.0383784
678.78	0.0395021
678.915	0.0397614
679.05	0.0401072
679.185	0.0401936
679.32	0.0369954
679.455	0.0392428
679.59	0.0399343
679.724	0.0393292
679.859	0.0407122
679.994	0.0378598
680.129	0.0401072
680.264	0.039675
680.399	0.0401072
680.534	0.0387242
680.669	0.0395021
680.803	0.0398479
680.938	0.0393292
681.073	0.0400207
681.208	0.0393292
681.343	0.0394157
681.478	0.038292
681.613	0.0398479
681.748	0.0395886
681.882	0.0389835
682.017	0.0391564
682.152	0.0391564
682.287	0.0401072
682.422	0.0384649
682.557	0.039675
682.692	0.0387242
682.827	0.0388971
682.961	0.0391564
683.096	0.039675
683.231	0.0391564
683.366	0.0387242
683.501	0.0398479
683.636	0.0381191
683.771	0.0404529
683.906	0.0397614
684.04	0.0394157
684.175	0.0392428
684.31	0.0386377
684.445	0.0386377
684.58	0.0393292
684.715	0.0393292
684.85	0.0395021
684.984	0.0393292
685.119	0.0402801
685.254	0.0388971
685.389	0.0393292
685.524	0.0392428
685.659	0.0376005
685.794	0.0392428
685.928	0.0392428
686.063	0.039675
686.198	0.0392428
686.333	0.0387242
686.468	0.039675
686.603	0.0386377
686.738	0.0394157
686.872	0.0399343
687.007	0.0390699
687.142	0.0393292
687.277	0.0401936
687.412	0.0398479
687.547	0.0390699
687.682	0.0387242
687.816	0.0397614
687.951	0.0394157
688.086	0.0395886
688.221	0.0395886
688.356	0.0401072
688.491	0.0388106
688.626	0.0387242
688.76	0.0395886
688.895	0.0390699
689.03	0.0395021
689.165	0.0399343
689.3	0.0395021
689.435	0.0397614
689.57	0.0395886
689.704	0.0401072
689.839	0.0388106
689.974	0.0392428
690.109	0.038292
690.244	0.0407122
690.379	0.0378598
690.513	0.0381191
690.648	0.0397614
690.783	0.0387242
690.918	0.0381191
691.053	0.0385513
691.188	0.0399343
691.323	0.0391564
691.457	0.0389835
691.592	0.0382055
691.727	0.038292
691.862	0.0395886
691.997	0.0377734
692.132	0.0388971
692.266	0.0395886
692.401	0.0391564
692.536	0.0395886
692.671	0.0390699
692.806	0.039675
692.941	0.0383784
693.075	0.0389835
693.21	0.0395886
693.345	0.0407987
693.48	0.0401936
693.615	0.0388106
693.75	0.0398479
693.885	0.0408851
694.019	0.0392428
694.154	0.0388971
694.289	0.0385513
694.424	0.037514
694.559	0.0394157
694.694	0.0395021
694.828	0.0386377
694.963	0.0392428
695.098	0.0399343
695.233	0.0387242
695.368	0.0387242
695.503	0.0388106
695.637	0.0399343
695.772	0.0380327
695.907	0.0383784
696.042	0.0395021
696.177	0.0406258
696.312	0.0389835
696.446	0.0395021
696.581	0.0388971
696.716	0.0397614
696.851	0.0388106
696.986	0.0391564
697.12	0.0394157
697.255	0.0389835
697.39	0.0400207
697.525	0.0411444
697.66	0.0389835
697.795	0.0392428
697.929	0.0394157
698.064	0.0407122
698.199	0.0402801
698.334	0.0400207
698.469	0.0390699
698.604	0.0394157
698.738	0.0384649
698.873	0.0380327
699.008	0.0387242
699.143	0.0389835
699.278	0.0395021
699.412	0.0397614
699.547	0.0406258
699.682	0.0407987
699.817	0.038292
699.952	0.0394157
700.087	0.0392428
700.221	0.0397614
700.356	0.0389835
700.491	0.0403665
700.626	0.0395886
700.761	0.0389835
700.895	0.0376869
701.03	0.0388106
701.165	0.0393292
701.3	0.0394157
701.435	0.0390699
701.57	0.0390699
701.704	0.0385513
701.839	0.0395021
701.974	0.0397614
702.109	0.0401936
702.244	0.0403665
702.378	0.0400207
702.513	0.0391564
702.648	0.0393292
702.783	0.0401936
702.918	0.0388971
703.052	0.0399343
703.187	0.0395886
703.322	0.0376869
703.457	0.0403665
703.592	0.0394157
703.727	0.0381191
703.861	0.0393292
703.996	0.0395021
704.131	0.0388106
704.266	0.0394157
704.401	0.0388971
704.535	0.0391564
704.67	0.0389835
704.805	0.0390699
704.94	0.0394157
705.075	0.0393292
705.209	0.0389835
705.344	0.0403665
705.479	0.0388971
705.614	0.0389835
705.749	0.0400207
705.883	0.0388106
706.018	0.0403665
706.153	0.0394157
706.288	0.0393292
706.423	0.0393292
706.557	0.0388106
706.692	0.0388971
706.827	0.039675
706.962	0.0400207
707.097	0.0401072
707.231	0.0392428
707.366	0.0384649
707.501	0.0390699
707.636	0.037514
707.771	0.0392428
707.905	0.0385513
708.04	0.0395021
708.175	0.0386377
708.31	0.0383784
708.445	0.0397614
708.579	0.0376005
708.714	0.0385513
708.849	0.039675
708.984	0.0373412
709.118	0.0388971
709.253	0.0392428
709.388	0.0392428
709.523	0.0382055
709.658	0.0400207
709.792	0.0395021
709.927	0.0390699
710.062	0.0386377
710.197	0.0397614
710.332	0.0388106
710.466	0.0393292
710.601	0.0395021
710.736	0.0403665
710.871	0.0387242
711.006	0.0388971
711.14	0.0399343
711.275	0.0397614
711.41	0.0393292
711.545	0.0388971
711.679	0.0404529
711.814	0.0388106
711.949	0.0388106
712.084	0.0391564
712.219	0.0388971
712.353	0.0400207
712.488	0.0386377
712.623	0.0399343
712.758	0.0401072
712.892	0.0383784
713.027	0.0377734
713.162	0.0391564
713.297	0.0398479
713.432	0.0389835
713.566	0.0397614
713.701	0.0388106
713.836	0.0392428
713.971	0.0397614
714.105	0.0392428
714.24	0.0394157
714.375	0.0401072
714.51	0.039675
714.645	0.0389835
714.779	0.0385513
714.914	0.0392428
715.049	0.0414038
715.184	0.0402801
715.318	0.0386377
715.453	0.0395886
715.588	0.0383784
715.723	0.0379462
715.858	0.0395886
715.992	0.0384649
716.127	0.0382055
716.262	0.039675
716.397	0.0394157
716.531	0.0398479
716.666	0.0399343
716.801	0.0385513
716.936	0.0402801
717.07	0.0389835
717.205	0.0407987
717.34	0.0394157
717.475	0.0391564
717.61	0.0392428
717.744	0.0401072
717.879	0.0389835
718.014	0.0392428
718.149	0.0393292
718.283	0.039675
718.418	0.0388106
718.553	0.0390699
718.688	0.0388106
718.822	0.0393292
718.957	0.0392428
719.092	0.0379462
719.227	0.0387242
719.361	0.0395886
719.496	0.0395021
719.631	0.0403665
719.766	0.0403665
719.9	0.0386377
720.035	0.0388971
720.17	0.0391564
720.305	0.0389835
720.44	0.0395886
720.574	0.0390699
720.709	0.0397614
720.844	0.0389835
720.979	0.0388106
721.113	0.0392428
721.248	0.0397614
721.383	0.0389835
721.518	0.0388971
721.652	0.0388106
721.787	0.039675
721.922	0.039675
722.057	0.0394157
722.191	0.0385513
722.326	0.0388971
722.461	0.0374276
722.596	0.0388106
722.73	0.0387242
722.865	0.0401936
723	0.0382055
723.135	0.0393292
723.269	0.0401936
723.404	0.037514
723.539	0.0383784
723.674	0.0399343
723.808	0.038292
723.943	0.0384649
724.078	0.0387242
724.213	0.0377734
724.347	0.0393292
724.482	0.0381191
724.617	0.0388971
724.752	0.0400207
724.886	0.0394157
725.021	0.0395886
725.156	0.0385513
725.291	0.0384649
725.425	0.0388971
725.56	0.0403665
725.695	0.0386377
725.829	0.0393292
725.964	0.0389835
726.099	0.0391564
726.234	0.0392428
726.368	0.0385513
726.503	0.0403665
726.638	0.0406258
726.773	0.0376869
726.907	0.0391564
727.042	0.0398479
727.177	0.0395021
727.312	0.0397614
727.446	0.0394157
727.581	0.0401936
727.716	0.0395021
727.851	0.0388106
727.985	0.0395021
728.12	0.0395886
728.255	0.0384649
728.389	0.0391564
728.524	0.0389835
728.659	0.0387242
728.794	0.0384649
728.928	0.0401072
729.063	0.0379462
729.198	0.0399343
729.333	0.0388106
729.467	0.0389835
729.602	0.039675
729.737	0.0391564
729.872	0.0394157
730.006	0.0385513
730.141	0.0395886
730.276	0.0386377
730.41	0.0387242
730.545	0.0392428
730.68	0.0388106
730.815	0.0392428
730.949	0.0398479
731.084	0.0394157
731.219	0.0390699
731.354	0.0385513
731.488	0.0386377
731.623	0.0389835
731.758	0.0383784
731.892	0.0397614
732.027	0.0399343
732.162	0.0388106
732.297	0.0400207
732.431	0.0392428
732.566	0.0381191
732.701	0.0378598
732.835	0.0400207
732.97	0.0400207
733.105	0.0400207
733.24	0.0389835
733.374	0.0407987
733.509	0.0384649
733.644	0.039675
733.779	0.0395021
733.913	0.0401072
734.048	0.0395021
734.183	0.0401936
734.317	0.0391564
734.452	0.0393292
734.587	0.0405394
734.722	0.0381191
734.856	0.0401936
734.991	0.0394157
735.126	0.0387242
735.26	0.039675
735.395	0.0389835
735.53	0.0401072
735.665	0.0387242
735.799	0.0402801
735.934	0.0390699
736.069	0.0385513
736.203	0.0381191
736.338	0.0406258
736.473	0.0388971
736.607	0.0395886
736.742	0.0399343
736.877	0.0400207
737.012	0.0377734
737.146	0.0395021
737.281	0.0394157
737.416	0.0405394
737.55	0.0387242
737.685	0.039675
737.82	0.0395021
737.955	0.0395021
738.089	0.0398479
738.224	0.0383784
738.359	0.0393292
738.493	0.0398479
738.628	0.0388106
738.763	0.0398479
738.897	0.0389835
739.032	0.039675
739.167	0.0394157
739.302	0.0392428
739.436	0.0387242
739.571	0.0391564
739.706	0.0390699
739.84	0.0388971
739.975	0.0392428
740.11	0.0388971
740.244	0.0385513
740.379	0.0384649
740.514	0.0401072
740.649	0.0395886
740.783	0.0384649
740.918	0.0393292
741.053	0.0390699
741.187	0.0411444
741.322	0.0386377
741.457	0.0400207
741.591	0.0401072
741.726	0.0397614
741.861	0.0388971
741.996	0.0385513
742.13	0.0394157
742.265	0.0393292
742.4	0.0397614
742.534	0.0392428
742.669	0.0388971
742.804	0.0387242
742.938	0.0406258
743.073	0.0390699
743.208	0.038292
743.342	0.0390699
743.477	0.0388971
743.612	0.0398479
743.747	0.0401072
743.881	0.0386377
744.016	0.0386377
744.151	0.0388106
744.285	0.0406258
744.42	0.0397614
744.555	0.0392428
744.689	0.0401936
744.824	0.0387242
744.959	0.0392428
745.093	0.0385513
745.228	0.0386377
745.363	0.0390699
745.497	0.0399343
745.632	0.0385513
745.767	0.0390699
745.901	0.0387242
746.036	0.039675
746.171	0.0377734
746.305	0.0389835
746.44	0.0392428
746.575	0.0399343
746.71	0.0402801
746.844	0.0393292
746.979	0.0394157
747.114	0.037514
747.248	0.0393292
747.383	0.0399343
747.518	0.0384649
747.652	0.0388106
747.787	0.0393292
747.922	0.0382055
748.056	0.0386377
748.191	0.0395021
748.326	0.0382055
748.46	0.0392428
748.595	0.0395886
748.73	0.0388106
748.864	0.0387242
748.999	0.038292
749.134	0.0395886
749.268	0.039675
749.403	0.0400207
749.538	0.0391564
749.672	0.0388106
749.807	0.0386377
749.942	0.0391564
750.076	0.0390699
750.211	0.0395021
750.346	0.0394157
750.48	0.0388971
750.615	0.0391564
750.75	0.0405394
750.884	0.0388106
751.019	0.0395886
751.154	0.0384649
751.288	0.0386377
751.423	0.0401072
751.558	0.0394157
751.692	0.038292
751.827	0.0401072
751.962	0.0394157
752.096	0.0406258
752.231	0.0389835
752.366	0.039675
752.5	0.0391564
752.635	0.0385513
752.77	0.0392428
752.904	0.0391564
753.039	0.0388971
753.174	0.0393292
753.308	0.0385513
753.443	0.0386377
753.578	0.0388106
753.712	0.0393292
753.847	0.0391564
753.982	0.0394157
754.116	0.0395886
754.251	0.0389835
754.386	0.0378598
754.52	0.0377734
754.655	0.0393292
754.79	0.0372547
754.924	0.0387242
755.059	0.0399343
755.194	0.0400207
755.328	0.0389835
755.463	0.0388106
755.597	0.0392428
755.732	0.0397614
755.867	0.039675
756.001	0.0392428
756.136	0.0388971
756.271	0.0400207
756.405	0.0381191
756.54	0.0398479
756.675	0.0389835
756.809	0.0393292
756.944	0.0389835
757.079	0.0390699
757.213	0.0403665
757.348	0.0384649
757.483	0.0389835
757.617	0.0412309
757.752	0.0387242
757.887	0.0394157
758.021	0.0390699
758.156	0.0395021
758.29	0.0390699
758.425	0.0405394
758.56	0.0387242
758.694	0.0390699
758.829	0.0382055
758.964	0.0395021
759.098	0.0385513
759.233	0.0384649
759.368	0.0391564
759.502	0.0402801
759.637	0.038292
759.772	0.0393292
759.906	0.0395021
760.041	0.0387242
760.175	0.0395886
760.31	0.0400207
760.445	0.0389835
760.579	0.0407987
760.714	0.0382055
760.849	0.0388971
760.983	0.0399343
761.118	0.0397614
761.253	0.0392428
761.387	0.0401936
761.522	0.0394157
761.656	0.0392428
761.791	0.038292
761.926	0.0376869
762.06	0.0401072
762.195	0.0378598
762.33	0.0389835
762.464	0.0395886
762.599	0.0395886
762.733	0.0389835
762.868	0.0392428
763.003	0.0386377
763.137	0.0385513
763.272	0.0400207
763.407	0.0366497
763.541	0.0401936
763.676	0.0384649
763.811	0.0393292
763.945	0.0392428
764.08	0.0394157
764.214	0.0388971
764.349	0.0383784
764.484	0.0380327
764.618	0.0398479
764.753	0.0390699
764.888	0.0392428
765.022	0.0391564
765.157	0.0383784
765.291	0.0392428
765.426	0.0395021
765.561	0.038292
765.695	0.0392428
765.83	0.0382055
765.965	0.0393292
766.099	0.0393292
766.234	0.0393292
766.368	0.0387242
766.503	0.0400207
766.638	0.0393292
766.772	0.0392428
766.907	0.0382055
767.041	0.0390699
767.176	0.0395886
767.311	0.0388971
767.445	0.0393292
767.58	0.0381191
767.715	0.0395886
767.849	0.0393292
767.984	0.0403665
768.118	0.0401072
768.253	0.038292
768.388	0.0390699
768.522	0.0385513
768.657	0.039675
768.791	0.0400207
768.926	0.0388971
769.061	0.0395021
769.195	0.039675
769.33	0.0395886
769.465	0.0397614
769.599	0.0405394
769.734	0.0401936
769.868	0.0389835
770.003	0.0395021
770.138	0.0393292
770.272	0.0393292
770.407	0.0384649
770.541	0.0393292
770.676	0.0395021
770.811	0.0391564
770.945	0.0398479
771.08	0.0388971
771.214	0.0388106
771.349	0.0401072
771.484	0.0395021
771.618	0.0399343
771.753	0.0393292
771.887	0.0392428
772.022	0.0391564
772.157	0.0388106
772.291	0.0391564
772.426	0.0387242
772.56	0.0395886
772.695	0.0395886
772.83	0.0386377
772.964	0.0385513
773.099	0.0392428
773.233	0.0389835
773.368	0.0390699
773.503	0.0397614
773.637	0.0386377
773.772	0.0407987
773.906	0.0387242
774.041	0.0398479
774.176	0.0388971
774.31	0.039675
774.445	0.0387242
774.579	0.0401072
774.714	0.0392428
774.849	0.0403665
774.983	0.0392428
775.118	0.0403665
775.252	0.0393292
775.387	0.0400207
775.522	0.0385513
775.656	0.0392428
775.791	0.0387242
775.925	0.039675
776.06	0.0395886
776.195	0.0386377
776.329	0.0388971
776.464	0.0391564
776.598	0.0395886
776.733	0.0390699
776.868	0.0399343
777.002	0.0400207
777.137	0.0398479
777.271	0.0397614
777.406	0.0402801
777.54	0.0393292
777.675	0.0382055
777.81	0.0409716
777.944	0.0389835
778.079	0.0391564
778.213	0.0395886
778.348	0.0399343
778.483	0.0403665
778.617	0.0389835
778.752	0.0397614
778.886	0.0389835
779.021	0.0383784
779.155	0.0398479
779.29	0.0384649
779.425	0.039675
779.559	0.0392428
779.694	0.0401072
779.828	0.0386377
779.963	0.0376869
780.098	0.0387242
780.232	0.038292
780.367	0.0395021
780.501	0.039675
780.636	0.0393292
780.77	0.0393292
780.905	0.0399343
781.04	0.0390699
781.174	0.0388971
781.309	0.0392428
781.443	0.0388106
781.578	0.0386377
781.712	0.0390699
781.847	0.0397614
781.982	0.039675
782.116	0.0385513
782.251	0.0394157
782.385	0.0398479
782.52	0.0384649
782.654	0.0390699
782.789	0.0408851
782.924	0.0394157
783.058	0.0395021
783.193	0.0384649
783.327	0.0407987
783.462	0.0387242
783.596	0.0397614
783.731	0.0403665
783.866	0.0400207
784	0.0397614
784.135	0.0391564
784.269	0.039675
784.404	0.0400207
784.538	0.0398479
784.673	0.0407122
784.808	0.0392428
784.942	0.0388971
785.077	0.0386377
785.211	0.0388971
785.346	0.0397614
785.48	0.0394157
785.615	0.041058
785.75	0.0397614
785.884	0.0397614
786.019	0.0392428
786.153	0.0394157
786.288	0.0384649
786.422	0.0391564
786.557	0.0401936
786.691	0.0399343
786.826	0.039675
786.961	0.0395886
787.095	0.0395886
787.23	0.0395021
787.364	0.0393292
787.499	0.0389835
787.633	0.0399343
787.768	0.0389835
787.902	0.0395021
788.037	0.0400207
788.172	0.0395886
788.306	0.0391564
788.441	0.0390699
788.575	0.0389835
788.71	0.0385513
788.844	0.0397614
788.979	0.0385513
789.113	0.039675
789.248	0.0383784
789.383	0.0391564
789.517	0.0393292
789.652	0.0404529
789.786	0.0387242
789.921	0.0392428
790.055	0.039675
790.19	0.0399343
790.324	0.0391564
790.459	0.0397614
790.594	0.0389835
790.728	0.0392428
790.863	0.0393292
790.997	0.0389835
791.132	0.0393292
791.266	0.0394157
791.401	0.039675
791.535	0.0393292
791.67	0.0390699
791.804	0.0384649
791.939	0.0392428
792.074	0.0399343
792.208	0.0389835
792.343	0.0392428
792.477	0.0393292
792.612	0.0388106
792.746	0.0388106
792.881	0.0399343
793.015	0.0395021
793.15	0.0388106
793.284	0.0391564
793.419	0.0393292
793.553	0.0397614
793.688	0.0388971
793.823	0.0385513
793.957	0.0389835
794.092	0.0400207
794.226	0.0399343
794.361	0.0395886
794.495	0.0380327
794.63	0.0393292
794.764	0.0404529
794.899	0.038292
795.033	0.0391564
795.168	0.0389835
795.302	0.0386377
795.437	0.0393292
795.572	0.0389835
795.706	0.0393292
795.841	0.0379462
795.975	0.0398479
796.11	0.0395886
796.244	0.0398479
796.379	0.0382055
796.513	0.0397614
796.648	0.0401072
796.782	0.039675
796.917	0.0388106
797.051	0.0395021
797.186	0.0392428
797.32	0.0385513
797.455	0.0394157
797.589	0.0394157
797.724	0.0391564
797.859	0.0394157
797.993	0.0401936
798.128	0.0391564
798.262	0.0389835
798.397	0.0397614
798.531	0.0392428
798.666	0.0386377
798.8	0.0399343
798.935	0.039675
799.069	0.0392428
799.204	0.0388971
799.338	0.0390699
799.473	0.0376869
799.607	0.0401936
799.742	0.0386377
799.876	0.0412309
800.011	0.0395886
800.145	0.0398479
800.28	0.0398479
800.414	0.0394157
800.549	0.0384649
800.683	0.0400207
800.818	0.0393292
800.953	0.0406258
801.087	0.0395886
801.222	0.0401072
801.356	0.0404529
801.491	0.0391564
801.625	0.0386377
801.76	0.0390699
801.894	0.0401072
802.029	0.0401072
802.163	0.0392428
802.298	0.0393292
802.432	0.0401072
802.567	0.0395886
802.701	0.0387242
802.836	0.0403665
802.97	0.0395021
803.105	0.0390699
803.239	0.0390699
803.374	0.0392428
803.508	0.0405394
803.643	0.0394157
803.777	0.041058
803.912	0.0393292
804.046	0.0405394
804.181	0.0401936
804.315	0.0392428
804.45	0.0395886
804.584	0.0392428
804.719	0.0394157
804.853	0.0406258
804.988	0.0397614
805.122	0.0392428
805.257	0.0395021
805.391	0.0385513
805.526	0.0405394
805.66	0.0391564
805.795	0.0394157
805.929	0.0394157
806.064	0.0399343
806.198	0.0400207
806.333	0.0394157
806.467	0.0397614
806.602	0.0398479
806.736	0.0405394
806.871	0.0395021
807.005	0.0401936
807.14	0.0402801
807.274	0.0398479
807.409	0.0408851
807.543	0.0408851
807.678	0.0405394
807.812	0.0404529
807.947	0.0399343
808.081	0.0385513
808.216	0.041058
808.35	0.0406258
808.485	0.0395886
808.619	0.0397614
808.754	0.0399343
808.888	0.0403665
809.023	0.0402801
809.157	0.0407122
809.292	0.0407122
809.426	0.0395021
809.561	0.0414902
809.695	0.0394157
809.83	0.0420088
809.964	0.0404529
810.099	0.0407122
810.233	0.0411444
810.368	0.0414902
810.502	0.0416631
810.637	0.0422681
810.771	0.0427003
810.906	0.0430461
811.04	0.0422681
811.175	0.0420088
811.309	0.0433054
811.444	0.043824
811.578	0.0434783
811.713	0.0432189
811.847	0.0435647
811.982	0.0453799
812.116	0.0462443
812.251	0.0458985
812.385	0.0474544
812.519	0.0489238
812.654	0.048751
812.788	0.049356
812.923	0.0526407
813.057	0.0551474
813.192	0.0580863
813.326	0.0704469
813.461	0.103293
813.595	0.274095
813.73	0.74181
813.864	0.985997
813.999	0.626502
814.133	0.407555
814.268	0.414038
814.402	0.436166
814.537	0.478693
814.671	0.379808
814.806	0.2543
814.94	0.309793
815.075	0.773706
815.209	1
815.344	0.721756
815.478	0.322413
815.612	0.325006
815.747	0.2116
815.881	0.0983663
816.016	0.0630132
816.15	0.0747688
816.285	0.199585
816.419	0.654162
816.554	0.51759
816.688	0.155588
816.823	0.0547152
816.957	0.0465036
817.092	0.0444291
817.226	0.0441698
817.361	0.044602
817.495	0.0431325
817.63	0.0427868
817.764	0.0417495
817.898	0.042441
818.033	0.0408851
818.167	0.041058
818.302	0.0420953
818.436	0.0414038
818.571	0.0416631
818.705	0.0412309
818.84	0.0406258
818.974	0.0406258
819.109	0.0414038
819.243	0.0411444
819.378	0.039675
819.512	0.0405394
819.646	0.0400207
819.781	0.0409716
819.915	0.0414038
820.05	0.0414902
820.184	0.0397614
820.319	0.0407122
820.453	0.039675
820.588	0.0395886
820.722	0.0399343
820.857	0.0395886
820.991	0.0392428
821.126	0.0398479
821.26	0.0404529
821.394	0.0392428
821.529	0.0413173
821.663	0.0389835
821.798	0.0407122
821.932	0.0409716
822.067	0.0391564
822.201	0.0395021
822.336	0.0407122
822.47	0.0395886
822.605	0.0395021
822.739	0.0401072
822.873	0.0401936
823.008	0.0403665
823.142	0.0407122
823.277	0.0393292
823.411	0.0394157
823.546	0.0391564
823.68	0.0384649
823.815	0.0404529
823.949	0.0394157
824.083	0.0393292
824.218	0.0400207
824.352	0.0394157
824.487	0.0390699
824.621	0.0405394
824.756	0.0395021
824.89	0.0384649
825.025	0.0398479
825.159	0.0395886
825.293	0.0395021
825.428	0.0392428
825.562	0.0389835
825.697	0.0406258
825.831	0.0388971
825.966	0.0386377
826.1	0.0388971
826.235	0.0392428
826.369	0.0390699
826.503	0.0399343
826.638	0.0393292
826.772	0.0402801
826.907	0.0389835
827.041	0.0400207
827.176	0.0390699
827.31	0.0394157
827.445	0.0392428
827.579	0.0384649
827.713	0.0388106
827.848	0.0399343
827.982	0.0387242
828.117	0.039675
828.251	0.0389835
828.386	0.0394157
828.52	0.039675
828.654	0.0401936
828.789	0.0377734
828.923	0.0403665
829.058	0.0403665
829.192	0.0389835
829.327	0.0397614
829.461	0.0395886
829.596	0.0395021
829.73	0.0388106
829.864	0.0395886
829.999	0.0391564
830.133	0.0397614
830.268	0.039675
830.402	0.0397614
830.537	0.0394157
830.671	0.0391564
830.805	0.0387242
830.94	0.0391564
831.074	0.0389835
831.209	0.0395021
831.343	0.0387242
831.478	0.0387242
831.612	0.0390699
831.746	0.0391564
831.881	0.0401936
832.015	0.0380327
832.15	0.0388971
832.284	0.0398479
832.418	0.0395886
832.553	0.0384649
832.687	0.0394157
832.822	0.0394157
832.956	0.0393292
833.091	0.0395021
833.225	0.0389835
833.359	0.0401072
833.494	0.0384649
833.628	0.0394157
833.763	0.0393292
833.897	0.0385513
834.032	0.0389835
834.166	0.0404529
834.3	0.0388971
834.435	0.0404529
834.569	0.0401936
834.704	0.0399343
834.838	0.0377734
834.972	0.0388106
835.107	0.0385513
835.241	0.038292
835.376	0.0389835
835.51	0.0391564
835.645	0.0402801
835.779	0.0397614
835.913	0.0387242
836.048	0.0391564
836.182	0.0399343
836.317	0.0398479
836.451	0.0395886
836.585	0.0385513
836.72	0.0400207
836.854	0.0393292
836.989	0.0395886
837.123	0.0388106
837.257	0.0385513
837.392	0.0392428
837.526	0.0390699
837.661	0.039675
837.795	0.0392428
837.929	0.0391564
838.064	0.0406258
838.198	0.0395021
838.333	0.0389835
838.467	0.0395886
838.602	0.0392428
838.736	0.0394157
838.87	0.0398479
839.005	0.0401072
839.139	0.0401936
839.274	0.0404529
839.408	0.0398479
839.542	0.0380327
839.677	0.0382055
839.811	0.0395886
839.946	0.0378598
840.08	0.0402801
840.214	0.0381191
840.349	0.0399343
840.483	0.0404529
840.618	0.0395021
840.752	0.0391564
840.886	0.0390699
841.021	0.0394157
841.155	0.0384649
841.29	0.0383784
841.424	0.0395021
841.558	0.0403665
841.693	0.0391564
841.827	0.0384649
841.961	0.0382055
842.096	0.0395886
842.23	0.0390699
842.365	0.0394157
842.499	0.0395021
842.633	0.0382055
842.768	0.0401072
842.902	0.0397614
843.037	0.0404529
843.171	0.0382055
843.305	0.0391564
843.44	0.039675
843.574	0.0401936
843.709	0.0399343
843.843	0.0391564
843.977	0.0388106
844.112	0.0385513
844.246	0.0388971
844.381	0.0392428
844.515	0.0398479
844.649	0.0385513
844.784	0.0397614
844.918	0.0392428
845.052	0.0403665
845.187	0.0392428
845.321	0.0391564
845.456	0.039675
845.59	0.0401936
845.724	0.0385513
845.859	0.0395886
845.993	0.0392428
846.128	0.0389835
846.262	0.0389835
846.396	0.0387242
846.531	0.0397614
846.665	0.0395021
846.799	0.0397614
846.934	0.0379462
847.068	0.0392428
847.203	0.0384649
847.337	0.0393292
847.471	0.0401072
847.606	0.039675
847.74	0.0382055
847.874	0.0391564
848.009	0.038292
848.143	0.0393292
848.278	0.0394157
848.412	0.0398479
848.546	0.0384649
848.681	0.0398479
848.815	0.0401936
848.949	0.0395886
849.084	0.0395886
849.218	0.0394157
849.353	0.0379462
849.487	0.0388106
849.621	0.0386377
849.756	0.0392428
849.89	0.0388106
850.024	0.0379462
850.159	0.0395886
850.293	0.0401936
850.428	0.0385513
850.562	0.0388971
850.696	0.0387242
850.831	0.0393292
850.965	0.0394157
851.099	0.0393292
851.234	0.0393292
851.368	0.0382055
851.502	0.0393292
851.637	0.0391564
851.771	0.0399343
851.906	0.039675
852.04	0.0383784
852.174	0.0388971
852.309	0.0398479
852.443	0.0395886
852.577	0.0401936
852.712	0.0395021
852.846	0.0389835
852.98	0.0395021
853.115	0.0387242
853.249	0.0400207
853.384	0.0400207
853.518	0.0401072
853.652	0.039675
853.787	0.0399343
853.921	0.0384649
854.055	0.0393292
854.19	0.0388971
854.324	0.0387242
854.458	0.0395021
854.593	0.039675
854.727	0.0388106
854.861	0.0401072
854.996	0.0392428
855.13	0.0398479
855.265	0.0399343
855.399	0.0388106
855.533	0.0388106
855.668	0.0394157
855.802	0.0392428
855.936	0.0399343
856.071	0.0395021
856.205	0.0386377
856.339	0.0397614
856.474	0.0401072
856.608	0.041058
856.742	0.0379462
856.877	0.0393292
857.011	0.0401936
857.145	0.0395021
857.28	0.0399343
857.414	0.0398479
857.549	0.0391564
857.683	0.0392428
857.817	0.0388971
857.952	0.0404529
858.086	0.0401936
858.22	0.0389835
858.355	0.0390699
858.489	0.0392428
858.623	0.0383784
858.758	0.0384649
858.892	0.0401072
859.026	0.0392428
859.161	0.0406258
859.295	0.0388106
859.429	0.0381191
859.564	0.0387242
859.698	0.0380327
859.832	0.0403665
859.967	0.0382055
860.101	0.0416631
860.235	0.0388106
860.37	0.0398479
860.504	0.0389835
860.638	0.0390699
860.773	0.0377734
860.907	0.0402801
861.041	0.0381191
861.176	0.0392428
861.31	0.0390699
861.444	0.0392428
861.579	0.0384649
861.713	0.0395021
861.847	0.0388106
861.982	0.0398479
862.116	0.039675
862.25	0.0399343
862.385	0.0388971
862.519	0.0395886
862.653	0.0393292
862.788	0.039675
862.922	0.0384649
863.056	0.0387242
863.191	0.0388106
863.325	0.0395886
863.459	0.0395021
863.594	0.0386377
863.728	0.0391564
863.862	0.0391564
863.997	0.0385513
864.131	0.0398479
864.265	0.0399343
864.4	0.0395886
864.534	0.0382055
864.668	0.0401936
864.803	0.0394157
864.937	0.0382055
865.071	0.0398479
865.206	0.0395021
865.34	0.0393292
865.474	0.0388971
865.609	0.0387242
865.743	0.0400207
865.877	0.0388971
866.012	0.0395886
866.146	0.0390699
866.28	0.0391564
866.415	0.038292
866.549	0.0395886
866.683	0.0398479
866.818	0.0386377
866.952	0.0379462
867.086	0.0392428
867.221	0.0394157
867.355	0.0383784
867.489	0.039675
867.623	0.0382055
867.758	0.0389835
867.892	0.0388971
868.026	0.0387242
868.161	0.0384649
868.295	0.0407122
868.429	0.0388971
868.564	0.0401936
868.698	0.0395021
868.832	0.0379462
868.967	0.0388106
869.101	0.0390699
869.235	0.0385513
869.37	0.0401072
869.504	0.0388971
869.638	0.0388106
869.773	0.0381191
869.907	0.0393292
870.041	0.0387242
870.175	0.0398479
870.31	0.0401072
870.444	0.0401936
870.578	0.0395886
870.713	0.0408851
870.847	0.0386377
870.981	0.0403665
871.116	0.0388971
871.25	0.0378598
871.384	0.0395886
871.519	0.0388971
871.653	0.0399343
871.787	0.0397614
871.921	0.0380327
872.056	0.0407122
872.19	0.0386377
872.324	0.0407987
872.459	0.0395021
872.593	0.0395886
872.727	0.039675
872.862	0.0387242
872.996	0.0390699
873.13	0.0385513
873.264	0.0392428
873.399	0.0391564
873.533	0.0392428
873.667	0.0401072
873.802	0.0395886
873.936	0.0385513
874.07	0.0400207
874.205	0.0390699
874.339	0.0388971
874.473	0.0397614
874.607	0.0394157
874.742	0.0404529
874.876	0.0394157
875.01	0.0391564
875.145	0.0386377
875.279	0.0400207
875.413	0.0388106
875.548	0.0388971
875.682	0.0391564
875.816	0.0395021
875.95	0.039675
876.085	0.0407122
876.219	0.0383784
876.353	0.0395021
876.488	0.0390699
876.622	0.0386377
876.756	0.0395021
876.89	0.0395886
877.025	0.0399343
877.159	0.0377734
877.293	0.0385513
877.428	0.0404529
877.562	0.0394157
877.696	0.0390699
877.83	0.0392428
877.965	0.0388106
878.099	0.0391564
878.233	0.0395886
878.368	0.0395886
878.502	0.0397614
878.636	0.0395886
878.77	0.0406258
878.905	0.0394157
879.039	0.0377734
879.173	0.0388971
879.308	0.0395886
879.442	0.0394157
879.576	0.0389835
879.71	0.039675
879.845	0.0388971
879.979	0.038292
880.113	0.0407122
880.248	0.0386377
880.382	0.0388106
880.516	0.0386377
880.65	0.0390699
880.785	0.0399343
880.919	0.0401072
881.053	0.0395021
881.188	0.0393292
881.322	0.0380327
881.456	0.0392428
881.59	0.0392428
881.725	0.0381191
881.859	0.0394157
881.993	0.039675
882.127	0.0404529
882.262	0.0400207
882.396	0.0394157
882.53	0.0392428
882.665	0.0392428
882.799	0.0398479
882.933	0.039675
883.067	0.0397614
883.202	0.0402801
883.336	0.0387242
883.47	0.0395021
883.604	0.0395021
883.739	0.0392428
883.873	0.0394157
884.007	0.0387242
884.142	0.0391564
884.276	0.039675
884.41	0.0395021
884.544	0.0391564
884.679	0.0385513
884.813	0.0379462
884.947	0.0377734
885.081	0.0401072
885.216	0.0393292
885.35	0.0399343
885.484	0.0393292
885.618	0.0398479
885.753	0.0395886
885.887	0.0388106
886.021	0.0406258
886.155	0.0393292
886.29	0.0393292
886.424	0.0392428
886.558	0.0404529
886.693	0.0392428
886.827	0.0392428
886.961	0.0401936
887.095	0.0400207
887.23	0.0386377
887.364	0.0388106
887.498	0.0399343
887.632	0.0385513
887.767	0.038292
887.901	0.0392428
888.035	0.0405394
888.169	0.0398479
888.304	0.0390699
888.438	0.0399343
888.572	0.039675
888.706	0.0404529
888.841	0.0393292
888.975	0.0394157
889.109	0.0387242
889.243	0.0392428
889.378	0.0397614
889.512	0.0393292
889.646	0.0388971
889.78	0.039675
889.915	0.0389835
890.049	0.0400207
890.183	0.0391564
890.317	0.0384649
890.452	0.039675
890.586	0.0384649
890.72	0.0398479
890.854	0.0395886
890.989	0.0390699
891.123	0.0391564
891.257	0.0392428
891.391	0.0389835
891.526	0.038292
891.66	0.0378598
891.794	0.0392428
891.928	0.0388106
892.063	0.0392428
892.197	0.0390699
892.331	0.0382055
892.465	0.0388971
892.6	0.0395886
892.734	0.038292
892.868	0.0390699
893.002	0.0386377
893.137	0.0395021
893.271	0.0395886
893.405	0.038292
893.539	0.0379462
893.674	0.0405394
893.808	0.0391564
893.942	0.0387242
894.076	0.039675
894.21	0.0388106
894.345	0.0401072
894.479	0.0388106
894.613	0.0395886
894.747	0.0398479
894.882	0.0395021
895.016	0.0411444
895.15	0.0395886
895.284	0.0400207
895.419	0.0381191
895.553	0.0392428
895.687	0.0390699
895.821	0.0385513
895.956	0.0387242
896.09	0.039675
896.224	0.0388106
896.358	0.0393292
896.492	0.0386377
896.627	0.0384649
896.761	0.0388106
896.895	0.039675
897.029	0.038292
897.164	0.0394157
897.298	0.038292
897.432	0.0403665
897.566	0.0392428
897.701	0.0386377
897.835	0.0382055
897.969	0.0398479
898.103	0.0395886
898.237	0.038292
898.372	0.0388106
898.506	0.0386377
898.64	0.0393292
898.774	0.0388971
898.909	0.0394157
899.043	0.0395021
899.177	0.0397614
899.311	0.0388971
899.445	0.0395886
899.58	0.0395021
899.714	0.038292
899.848	0.0391564
899.982	0.0398479
900.117	0.0405394
900.251	0.0390699
900.385	0.0401936
900.519	0.0383784
900.653	0.0405394
900.788	0.0389835
900.922	0.0407987
901.056	0.0389835
901.19	0.0391564
901.325	0.0389835
901.459	0.0392428
901.593	0.0393292
901.727	0.0398479
901.861	0.0392428
901.996	0.0395021
902.13	0.0387242
902.264	0.0395886
902.398	0.0390699
902.532	0.0394157
902.667	0.039675
902.801	0.0400207
902.935	0.0392428
903.069	0.0388106
903.204	0.0391564
903.338	0.0400207
903.472	0.038292
903.606	0.0388106
903.74	0.0395886
903.875	0.0403665
904.009	0.0386377
904.143	0.0395886
904.277	0.0386377
904.411	0.0391564
904.546	0.0391564
904.68	0.0395021
904.814	0.0382055
904.948	0.0395886
905.082	0.0393292
905.217	0.0390699
905.351	0.0395021
905.485	0.0390699
905.619	0.0390699
905.753	0.0393292
905.888	0.0391564
906.022	0.0387242
906.156	0.0394157
906.29	0.0402801
906.424	0.0400207
906.559	0.039675
906.693	0.0400207
906.827	0.0393292
906.961	0.039675
907.095	0.0390699
907.23	0.0399343
907.364	0.0407122
907.498	0.0384649
907.632	0.0389835
907.766	0.0391564
907.901	0.0392428
908.035	0.0401072
908.169	0.0389835
908.303	0.0397614
908.437	0.0392428
908.572	0.0392428
908.706	0.0394157
908.84	0.0399343
908.974	0.0398479
909.108	0.0389835
909.243	0.0400207
909.377	0.0397614
909.511	0.0389835
909.645	0.0395021
909.779	0.0380327
909.914	0.0378598
910.048	0.0376869
910.182	0.0384649
910.316	0.0388106
910.45	0.0392428
910.585	0.0397614
910.719	0.0393292
910.853	0.0394157
910.987	0.0397614
911.121	0.0383784
911.255	0.0404529
911.39	0.0399343
911.524	0.0395021
911.658	0.039675
911.792	0.0401936
911.926	0.0402801
912.061	0.0395886
912.195	0.0401936
912.329	0.0395886
912.463	0.0385513
912.597	0.0401936
912.732	0.0405394
912.866	0.0402801
913	0.0395021
913.134	0.0393292
913.268	0.0395886
913.402	0.0393292
913.537	0.039675
913.671	0.0385513
913.805	0.0392428
913.939	0.039675
914.073	0.0389835
914.208	0.0401936
914.342	0.0391564
914.476	0.0391564
914.61	0.0409716
914.744	0.0382055
914.878	0.0385513
915.013	0.0397614
915.147	0.0388971
915.281	0.0399343
915.415	0.0395021
915.549	0.0384649
915.683	0.0403665
915.818	0.0382055
915.952	0.039675
916.086	0.0397614
916.22	0.0384649
916.354	0.0397614
916.488	0.0401072
916.623	0.0376869
916.757	0.0390699
916.891	0.0392428
917.025	0.0414038
917.159	0.0384649
917.293	0.038292
917.428	0.0391564
917.562	0.0387242
917.696	0.0394157
917.83	0.0389835
917.964	0.0388106
918.098	0.0404529
918.233	0.0391564
918.367	0.0386377
918.501	0.0388971
918.635	0.0387242
918.769	0.0400207
918.903	0.0401936
919.038	0.0387242
919.172	0.0386377
919.306	0.0391564
919.44	0.0397614
919.574	0.0390699
919.708	0.0386377
919.843	0.0401936
919.977	0.0400207
920.111	0.0395021
920.245	0.0395886
920.379	0.039675
920.513	0.0401072
920.648	0.0388106
920.782	0.0391564
920.916	0.0393292
921.05	0.0398479
921.184	0.0384649
921.318	0.039675
921.453	0.0389835
921.587	0.0393292
921.721	0.0391564
921.855	0.0398479
921.989	0.0385513
922.123	0.0384649
922.257	0.0387242
922.392	0.0378598
922.526	0.0395021
922.66	0.0388971
922.794	0.0400207
922.928	0.0405394
923.062	0.0391564
923.197	0.0393292
923.331	0.0392428
923.465	0.0380327
923.599	0.0387242
923.733	0.0382055
923.867	0.0392428
924.001	0.0404529
924.136	0.0393292
924.27	0.0387242
924.404	0.0399343
924.538	0.0404529
924.672	0.0397614
924.806	0.0388971
924.94	0.0380327
925.075	0.0400207
925.209	0.0385513
925.343	0.0388106
925.477	0.0392428
925.611	0.0401072
925.745	0.0388971
925.879	0.0388106
926.014	0.0393292
926.148	0.0411444
926.282	0.0395886
926.416	0.0387242
926.55	0.0381191
926.684	0.0391564
926.818	0.0418359
926.953	0.0389835
927.087	0.0387242
927.221	0.0390699
927.355	0.0392428
927.489	0.0406258
927.623	0.037514
927.757	0.0398479
927.892	0.0398479
928.026	0.0397614
928.16	0.0395021
928.294	0.0389835
928.428	0.0388971
928.562	0.0392428
928.696	0.0389835
928.831	0.0398479
928.965	0.0385513
929.099	0.0386377
929.233	0.0400207
929.367	0.0390699
929.501	0.0412309
929.635	0.0393292
929.769	0.0395886
929.904	0.0388106
930.038	0.0401072
930.172	0.0397614
930.306	0.0403665
930.44	0.0390699
930.574	0.0388106
930.708	0.0388106
930.843	0.0388971
930.977	0.0401072
931.111	0.0390699
931.245	0.0401072
931.379	0.0388971
931.513	0.0385513
931.647	0.0388106
931.781	0.0389835
931.916	0.0392428
932.05	0.0388971
932.184	0.0389835
932.318	0.0392428
932.452	0.0386377
932.586	0.0393292
932.72	0.0381191
932.854	0.0398479
932.989	0.0388106
933.123	0.0407122
933.257	0.0387242
933.391	0.0391564
933.525	0.0381191
933.659	0.0401936
933.793	0.0392428
933.927	0.0401072
934.061	0.0400207
934.196	0.0392428
934.33	0.0389835
934.464	0.0386377
934.598	0.0388106
934.732	0.0374276
934.866	0.0400207
935	0.0401936
935.134	0.0388971
935.269	0.0403665
935.403	0.0385513
935.537	0.0397614
935.671	0.038292
935.805	0.039675
935.939	0.0376005
936.073	0.0395021
936.207	0.0388971
936.341	0.0398479
936.476	0.0397614
936.61	0.0391564
936.744	0.0400207
936.878	0.0391564
937.012	0.0378598
937.146	0.0391564
937.28	0.0389835
937.414	0.0386377
937.548	0.0400207
937.683	0.0387242
937.817	0.0384649
937.951	0.0388971
938.085	0.0389835
938.219	0.0398479
938.353	0.0395886
938.487	0.0393292
938.621	0.0380327
938.755	0.0393292
938.889	0.0386377
939.024	0.0400207
939.158	0.0405394
939.292	0.0391564
939.426	0.0393292
939.56	0.0404529
939.694	0.0383784
939.828	0.0399343
939.962	0.0394157
940.096	0.0390699
940.231	0.0385513
940.365	0.0388971
940.499	0.0388106
940.633	0.0390699
940.767	0.0394157
940.901	0.0395886
941.035	0.0392428
941.169	0.0406258
941.303	0.0387242
941.437	0.0392428
941.571	0.0405394
941.706	0.0400207
941.84	0.0394157
941.974	0.0389835
942.108	0.0399343
942.242	0.0388971
942.376	0.0381191
942.51	0.0397614
942.644	0.0385513
942.778	0.0394157
942.912	0.0384649
943.047	0.0405394
943.181	0.0390699
943.315	0.0380327
943.449	0.0392428
943.583	0.0394157
943.717	0.039675
943.851	0.0395886
943.985	0.037514
944.119	0.0388106
944.253	0.0397614
944.387	0.0392428
944.522	0.0394157
944.656	0.0395886
944.79	0.0388971
944.924	0.0384649
945.058	0.0385513
945.192	0.0386377
945.326	0.0387242
945.46	0.039675
945.594	0.0376005
945.728	0.0383784
945.862	0.0376005
945.996	0.0399343
946.131	0.0386377
946.265	0.0387242
946.399	0.039675
946.533	0.0389835
946.667	0.0394157
946.801	0.0382055
946.935	0.0395021
947.069	0.0385513
947.203	0.0397614
947.337	0.0392428
947.471	0.0384649
947.605	0.0390699
947.739	0.0397614
947.874	0.0403665
948.008	0.0388106
948.142	0.0395021
948.276	0.0390699
948.41	0.0392428
948.544	0.0392428
948.678	0.0390699
948.812	0.0388971
948.946	0.0406258
949.08	0.0407987
949.214	0.0407987
949.348	0.0401936
949.482	0.0387242
949.617	0.0393292
949.751	0.0388106
949.885	0.039675
950.019	0.0381191
950.153	0.0394157
950.287	0.0392428
950.421	0.0402801
950.555	0.0395886
950.689	0.0389835
950.823	0.0388971
950.957	0.0393292
951.091	0.0401072
951.225	0.0399343
951.359	0.0370819
951.493	0.0403665
951.628	0.0386377
951.762	0.0391564
951.896	0.0390699
952.03	0.0388971
952.164	0.0401936
952.298	0.0400207
952.432	0.0388971
952.566	0.0400207
952.7	0.0387242
952.834	0.0383784
952.968	0.0390699
953.102	0.0383784
953.236	0.0395886
953.37	0.0394157
953.504	0.0389835
953.639	0.0384649
953.773	0.0397614
953.907	0.0380327
954.041	0.0405394
954.175	0.0395886
954.309	0.0402801
954.443	0.0389835
954.577	0.0388971
954.711	0.0391564
954.845	0.0388106
954.979	0.0388106
955.113	0.0385513
955.247	0.0397614
955.381	0.0385513
955.515	0.0385513
955.649	0.0402801
955.783	0.0398479
955.917	0.0391564
956.052	0.0392428
956.186	0.0395886
956.32	0.039675
956.454	0.0388971
956.588	0.0395886
956.722	0.0404529
956.856	0.0393292
956.99	0.0406258
957.124	0.0376005
957.258	0.0389835
957.392	0.0395886
957.526	0.0395886
957.66	0.0388106
957.794	0.0384649
957.928	0.0384649
958.062	0.0394157
958.196	0.0391564
958.33	0.0401072
958.464	0.0388971
958.598	0.0386377
958.733	0.0403665
958.867	0.0381191
959.001	0.039675
959.135	0.0395886
959.269	0.0389835
959.403	0.0385513
959.537	0.0394157
959.671	0.0388106
959.805	0.038292
959.939	0.0402801
960.073	0.0403665
960.207	0.0391564
960.341	0.0388971
960.475	0.039675
960.609	0.0384649
960.743	0.0392428
960.877	0.0400207
961.011	0.0397614
961.145	0.0399343
961.279	0.0406258
961.413	0.0400207
961.547	0.0406258
961.681	0.0398479
961.815	0.0399343
961.949	0.0385513
962.083	0.0393292
962.218	0.0389835
962.352	0.0395886
962.486	0.0391564
962.62	0.0395021
962.754	0.0383784
962.888	0.0390699
963.022	0.0388106
963.156	0.0395886
963.29	0.0395021
963.424	0.0399343
963.558	0.0387242
963.692	0.0377734
963.826	0.0389835
963.96	0.0395021
964.094	0.0389835
964.228	0.0390699
964.362	0.0395021
964.496	0.0390699
964.63	0.0389835
964.764	0.0388971
964.898	0.038292
965.032	0.0387242
965.166	0.0392428
965.3	0.0393292
965.434	0.0395886
965.568	0.0393292
965.702	0.0388106
965.836	0.0399343
965.97	0.0387242
966.104	0.039675
966.238	0.0392428
966.372	0.0388971
966.506	0.0384649
966.64	0.0395886
966.774	0.0406258
966.908	0.0389835
967.043	0.0385513
967.177	0.0393292
967.311	0.0391564
967.445	0.0395021
967.579	0.039675
967.713	0.0395021
967.847	0.039675
967.981	0.039675
968.115	0.0392428
968.249	0.0398479
968.383	0.0394157
968.517	0.0392428
968.651	0.0395886
968.785	0.0399343
968.919	0.0382055
969.053	0.0380327
969.187	0.0401072
969.321	0.0392428
969.455	0.0399343
969.589	0.0407122
969.723	0.0398479
969.857	0.0394157
969.991	0.0385513
970.125	0.0386377
970.259	0.039675
970.393	0.0395021
970.527	0.0387242
970.661	0.0393292
970.795	0.0394157
970.929	0.039675
971.063	0.0387242
971.197	0.0387242
971.331	0.0411444
971.465	0.039675
971.599	0.0380327
971.733	0.0393292
971.867	0.0377734
972.001	0.0387242
972.135	0.039675
972.269	0.0388106
972.403	0.0386377
972.537	0.0395021
972.671	0.0383784
972.805	0.0399343
972.939	0.039675
973.073	0.0382055
973.207	0.0402801
973.341	0.0377734
973.475	0.0389835
973.609	0.0381191
973.743	0.038292
973.877	0.039675
974.011	0.038292
974.145	0.0402801
974.279	0.0391564
974.413	0.0401072
974.547	0.039675
974.681	0.0388106
974.815	0.0384649
974.949	0.0401936
975.083	0.0405394
975.217	0.038292
975.351	0.0398479
975.485	0.0399343
975.619	0.0390699
975.753	0.0386377
975.887	0.0385513
976.021	0.0399343
976.155	0.0380327
976.289	0.0392428
976.423	0.0387242
976.557	0.0390699
976.691	0.0394157
976.825	0.0397614
976.959	0.0394157
977.093	0.0388971
977.227	0.0385513
977.361	0.0402801
977.495	0.0383784
977.629	0.0389835
977.763	0.0394157
977.897	0.0389835
978.031	0.039675
978.165	0.038292
978.299	0.0411444
978.433	0.0401072
978.567	0.0398479
978.701	0.0404529
978.835	0.0384649
978.969	0.0400207
979.103	0.0390699
979.237	0.0389835
979.371	0.0409716
979.505	0.0389835
979.639	0.0381191
979.773	0.0388971
979.907	0.0395886
980.041	0.0383784
980.175	0.0415766
980.308	0.0392428
980.442	0.0388971
980.576	0.0390699
980.71	0.0411444
980.844	0.038292
980.978	0.0401936
981.112	0.0391564
981.246	0.0385513
981.38	0.0407122
981.514	0.0385513
981.648	0.0395886
981.782	0.0401936
981.916	0.0397614
982.05	0.0378598
982.184	0.0398479
982.318	0.0401936
982.452	0.0391564
982.586	0.0391564
982.72	0.0392428
982.854	0.0385513
982.988	0.0390699
983.122	0.0400207
983.256	0.0397614
983.39	0.0387242
983.524	0.0388971
983.658	0.0404529
983.792	0.0387242
983.926	0.0393292
984.06	0.0390699
984.194	0.0393292
984.328	0.0385513
984.462	0.0395021
984.596	0.0381191
984.73	0.0399343
984.864	0.039675
984.998	0.0398479
985.132	0.0397614
985.265	0.0395021
985.399	0.0388106
985.533	0.0389835
985.667	0.039675
985.801	0.0395021
985.935	0.0401936
986.069	0.0398479
986.203	0.0399343
986.337	0.0385513
986.471	0.0393292
986.605	0.0389835
986.739	0.0390699
986.873	0.0387242
987.007	0.0383784
987.141	0.0392428
987.275	0.0395021
987.409	0.0399343
987.543	0.039675
987.677	0.0388106
987.811	0.0390699
987.945	0.0398479
988.079	0.0390699
988.213	0.0399343
988.347	0.0388971
988.481	0.0404529
988.614	0.038292
988.748	0.0400207
988.882	0.0393292
989.016	0.0387242
989.15	0.0391564
989.284	0.0402801
989.418	0.0387242
989.552	0.0389835
989.686	0.0392428
989.82	0.0395886
989.954	0.0397614
990.088	0.0388971
990.222	0.0379462
990.356	0.039675
990.49	0.0387242
990.624	0.0383784
990.758	0.0407122
990.892	0.0391564
991.026	0.0393292
991.16	0.0391564
991.294	0.0395886
991.427	0.0387242
991.561	0.0401072
991.695	0.0393292
991.829	0.0393292
991.963	0.0405394
992.097	0.0394157
992.231	0.0393292
992.365	0.0388106
992.499	0.038292
992.633	0.0400207
992.767	0.0399343
992.901	0.0389835
993.035	0.0392428
993.169	0.0388971
993.303	0.0390699
993.437	0.0392428
993.571	0.0401072
993.704	0.039675
993.838	0.0394157
993.972	0.0393292
994.106	0.0395021
994.24	0.0388971
994.374	0.0404529
994.508	0.0395021
994.642	0.0401072
994.776	0.0393292
994.91	0.0401072
995.044	0.0388106
995.178	0.0388106
995.312	0.0388106
995.446	0.0381191
995.58	0.0399343
995.714	0.0384649
995.847	0.0391564
995.981	0.0395021
996.115	0.0393292
996.249	0.0388971
996.383	0.0395886
996.517	0.039675
996.651	0.0401936
996.785	0.038292
996.919	0.0392428
997.053	0.0381191
997.187	0.0389835
997.321	0.0395886
997.455	0.0394157
997.589	0.0391564
997.722	0.0388971
997.856	0.0384649
997.99	0.0378598
998.124	0.0387242
998.258	0.0400207
998.392	0.0391564
998.526	0.0400207
998.66	0.0383784
998.794	0.039675
998.928	0.0386377
999.062	0.0398479
999.196	0.0397614
999.33	0.0385513
999.464	0.0394157
999.597	0.0402801
999.731	0.0382055
999.865	0.0402801
999.999	0.0388971
1000.13	0.039675
1000.27	0.0401936
1000.4	0.0388106
1000.53	0.0383784
1000.67	0.0391564
1000.8	0.0388971
1000.94	0.0395021
1001.07	0.0392428
1001.2	0.0400207
1001.34	0.0388971
1001.47	0.0395886
1001.61	0.0391564
1001.74	0.039675
1001.87	0.0394157
1002.01	0.0382055
1002.14	0.0397614
1002.28	0.0401936
1002.41	0.0395021
1002.54	0.0392428
1002.68	0.0387242
1002.81	0.0401936
1002.95	0.0386377
1003.08	0.0390699
1003.21	0.0390699
1003.35	0.039675
1003.48	0.0384649
1003.61	0.0390699
1003.75	0.0394157
1003.88	0.0393292
1004.02	0.039675
1004.15	0.0399343
1004.28	0.0392428
1004.42	0.0388971
1004.55	0.0398479
1004.69	0.0407122
1004.82	0.0387242
1004.95	0.0400207
1005.09	0.0387242
1005.22	0.0390699
1005.36	0.0377734
1005.49	0.0380327
1005.62	0.0400207
1005.76	0.0409716
1005.89	0.0388971
1006.03	0.0395021
1006.16	0.0393292
1006.29	0.0388106
1006.43	0.0395021
1006.56	0.0388971
1006.69	0.0392428
1006.83	0.0386377
1006.96	0.0395021
1007.1	0.0388971
1007.23	0.0401936
1007.36	0.0404529
1007.5	0.0395886
1007.63	0.0388106
1007.77	0.0386377
1007.9	0.0389835
1008.03	0.0398479
1008.17	0.0387242
1008.3	0.039675
1008.44	0.0383784
1008.57	0.0400207
1008.7	0.0385513
1008.84	0.0386377
1008.97	0.0391564
1009.1	0.0382055
1009.24	0.0389835
1009.37	0.038292
1009.51	0.0398479
1009.64	0.0392428
1009.77	0.0394157
1009.91	0.0388971
1010.04	0.0394157
1010.18	0.0391564
1010.31	0.0392428
1010.44	0.0403665
1010.58	0.039675
1010.71	0.0399343
1010.85	0.0379462
1010.98	0.0393292
1011.11	0.0380327
1011.25	0.0378598
1011.38	0.0395886
1011.51	0.0395021
1011.65	0.0394157
1011.78	0.0374276
1011.92	0.0388106
1012.05	0.0388971
1012.18	0.0399343
1012.32	0.0389835
1012.45	0.0401072
1012.59	0.0387242
1012.72	0.0384649
1012.85	0.0400207
1012.99	0.0395021
1013.12	0.039675
1013.26	0.0395021
1013.39	0.0387242
1013.52	0.0383784
1013.66	0.0377734
1013.79	0.0394157
1013.92	0.0397614
1014.06	0.0393292
1014.19	0.0383784
1014.33	0.0388971
1014.46	0.0388106
1014.59	0.0393292
1014.73	0.0394157
1014.86	0.039675
1015	0.0388971
1015.13	0.0397614
1015.26	0.0397614
1015.4	0.0388971
1015.53	0.0393292
1015.67	0.0392428
1015.8	0.0397614
1015.93	0.0393292
1016.07	0.0394157
1016.2	0.0390699
1016.33	0.0385513
1016.47	0.0388106
1016.6	0.0392428
1016.74	0.0400207
1016.87	0.0399343
1017	0.0395886
1017.14	0.0379462
1017.27	0.0395021
1017.41	0.0405394
1017.54	0.0386377
1017.67	0.0387242
1017.81	0.0404529
1017.94	0.0376005
1018.07	0.0383784
1018.21	0.0391564
1018.34	0.0402801
1018.48	0.0401072
1018.61	0.0401072
1018.74	0.0400207
1018.88	0.0387242
1019.01	0.0381191
1019.15	0.0394157
1019.28	0.0398479
1019.41	0.0397614
1019.55	0.0388106
1019.68	0.0388106
1019.82	0.0393292
1019.95	0.0394157
1020.08	0.0400207
1020.22	0.0393292
1020.35	0.0390699
1020.48	0.0395886
1020.62	0.0401072
1020.75	0.0402801
1020.89	0.0386377
1021.02	0.0392428
1021.15	0.0379462
1021.29	0.0393292
1021.42	0.0397614
1021.56	0.0382055
1021.69	0.0386377
1021.82	0.0395886
1021.96	0.0393292
1022.09	0.0393292
1022.22	0.0389835
1022.36	0.0390699
1022.49	0.0388106
1022.63	0.0401936
1022.76	0.0378598
1022.89	0.0388106
1023.03	0.0385513
1023.16	0.0385513
1023.3	0.0385513
1023.43	0.0394157
1023.56	0.0392428
1023.7	0.0384649
1023.83	0.0395886
1023.96	0.0391564
1024.1	0.038292
1024.23	0.0395886
1024.37	0.0392428
1024.5	0.0394157
1024.63	0.0391564
1024.77	0.0391564
1024.9	0.0389835
1025.04	0.0381191
1025.17	0.0394157
1025.3	0.0390699
1025.44	0.0395886
1025.57	0.0388106
1025.7	0.0379462
1025.84	0.0378598
1025.97	0.0395021
1026.11	0.0391564
1026.24	0.0387242
1026.37	0.0399343
1026.51	0.0394157
1026.64	0.0395886
1026.78	0.0386377
1026.91	0.0391564
1027.04	0.0388971
1027.18	0.0390699
1027.31	0.0382055
1027.44	0.0407987
1027.58	0.0395886
1027.71	0.0391564
1027.85	0.0387242
1027.98	0.0376869
1028.11	0.0389835
1028.25	0.0407122
1028.38	0.0398479
1028.52	0.0395021
1028.65	0.0395021
1028.78	0.0401936
1028.92	0.0386377
1029.05	0.0387242
1029.18	0.0398479
1029.32	0.0387242
1029.45	0.0398479
1029.59	0.0395886
1029.72	0.0388106
1029.85	0.0398479
1029.99	0.0397614
1030.12	0.0391564
1030.26	0.0393292
1030.39	0.0401072
1030.52	0.039675
1030.66	0.0395021
1030.79	0.0392428
1030.92	0.0384649
1031.06	0.0395021
1031.19	0.0392428
1031.33	0.0388971
1031.46	0.0394157
1031.59	0.0386377
1031.73	0.0405394
1031.86	0.0409716
1031.99	0.0391564
1032.13	0.0387242
1032.26	0.0386377
1032.4	0.0389835
1032.53	0.0399343
1032.66	0.0388106
1032.8	0.0394157
1032.93	0.0388106
1033.07	0.0395886
1033.2	0.0382055
1033.33	0.0387242
1033.47	0.0390699
1033.6	0.0394157
1033.73	0.0391564
1033.87	0.0393292
1034	0.0401936
1034.14	0.0401072
1034.27	0.0373412
1034.4	0.0395021
1034.54	0.0384649
1034.67	0.0397614
1034.81	0.0389835
1034.94	0.0409716
1035.07	0.0383784
1035.21	0.0399343
1035.34	0.0385513
1035.47	0.0397614
1035.61	0.0383784
1035.74	0.0386377
1035.88	0.0397614
1036.01	0.0398479
1036.14	0.0389835
1036.28	0.0388971
1036.41	0.0395886
1036.54	0.039675
1036.68	0.0394157
1036.81	0.0395886
1036.95	0.0401936
1037.08	0.0395886
1037.21	0.0392428
1037.35	0.0380327
1037.48	0.0388106
1037.62	0.0386377
1037.75	0.0394157
1037.88	0.0392428
1038.02	0.0394157
1038.15	0.0395886
1038.28	0.0379462
1038.42	0.0391564
1038.55	0.0395886
1038.69	0.0399343
1038.82	0.0385513
1038.95	0.0393292
1039.09	0.0377734
1039.22	0.0383784
1039.35	0.0402801
1039.49	0.0387242
1039.62	0.0399343
1039.76	0.0399343
1039.89	0.0390699
1040.02	0.0393292
1040.16	0.0394157
1040.29	0.0394157
1040.43	0.039675
1040.56	0.0393292
1040.69	0.039675
1040.83	0.0399343
1040.96	0.0389835
1041.09	0.0388106
1041.23	0.0395021
1041.36	0.0386377
1041.5	0.0389835
1041.63	0.039675
1041.76	0.0391564
1041.9	0.0392428
1042.03	0.0386377
1042.16	0.0406258
1042.3	0.039675
1042.43	0.0378598
1042.57	0.0401936
1042.7	0.0398479
1042.83	0.0374276
1042.97	0.0403665
1043.1	0.0393292
1043.23	0.0390699
1043.37	0.0400207
1043.5	0.0398479
1043.64	0.0392428
1043.77	0.0386377
1043.9	0.0381191
1044.04	0.0392428
1044.17	0.037514
1044.31	0.0384649
1044.44	0.0394157
1044.57	0.0404529
1044.71	0.0400207
1044.84	0.0397614
1044.97	0.0393292
1045.11	0.0387242
1045.24	0.039675
1045.38	0.0386377
1045.51	0.0389835
1045.64	0.0398479
1045.78	0.0395886
1045.91	0.0388971
1046.04	0.0389835
1046.18	0.0390699
1046.31	0.0394157
1046.45	0.0384649
1046.58	0.0402801
1046.71	0.0391564
1046.85	0.0395886
1046.98	0.0400207
1047.11	0.0390699
1047.25	0.0388971
1047.38	0.0385513
1047.52	0.038292
1047.65	0.0388971
1047.78	0.0389835
1047.92	0.0397614
1048.05	0.0395021
1048.18	0.0377734
1048.32	0.0376005
1048.45	0.0400207
1048.59	0.0393292
1048.72	0.0404529
1048.85	0.0387242
1048.99	0.0402801
1049.12	0.039675
1049.25	0.0390699
1049.39	0.0394157
1049.52	0.039675
1049.66	0.0400207
1049.79	0.0387242
1049.92	0.0386377
1050.06	0.0377734
1050.19	0.0394157
1050.33	0.0383784
1050.46	0.0391564
1050.59	0.0385513
1050.73	0.0399343
1050.86	0.0389835
1050.99	0.0394157
1051.13	0.0385513
1051.26	0.0386377
1051.4	0.0391564
1051.53	0.0383784
1051.66	0.0389835
1051.8	0.0389835
1051.93	0.0389835
1052.06	0.0388106
1052.2	0.0392428
1052.33	0.0389835
1052.47	0.0401936
1052.6	0.0391564
1052.73	0.0384649
1052.87	0.0385513
1053	0.0388106
1053.13	0.038292
1053.27	0.0392428
1053.4	0.0394157
1053.54	0.0404529
1053.67	0.0394157
1053.8	0.0392428
1053.94	0.0388106
1054.07	0.0398479
1054.2	0.0399343
1054.34	0.0387242
1054.47	0.0398479
1054.61	0.0385513
1054.74	0.0407987
1054.87	0.0390699
1055.01	0.0395021
1055.14	0.0395021
1055.27	0.0389835
1055.41	0.0395886
1055.54	0.0391564
1055.68	0.039675
1055.81	0.0399343
1055.94	0.0392428
1056.08	0.0386377
1056.21	0.0389835
1056.34	0.0412309
1056.48	0.0394157
1056.61	0.0385513
1056.75	0.0395021
1056.88	0.0392428
1057.01	0.0388971
1057.15	0.0397614
1057.28	0.0383784
1057.41	0.0405394
1057.55	0.0392428
1057.68	0.0384649
1057.82	0.0389835
1057.95	0.0385513
1058.08	0.0389835
1058.22	0.0391564
1058.35	0.0378598
1058.48	0.0400207
1058.62	0.0401936
1058.75	0.0403665
1058.89	0.0388106
1059.02	0.039675
1059.15	0.0397614
1059.29	0.0411444
1059.42	0.0391564
1059.55	0.0389835
1059.69	0.038292
1059.82	0.0393292
1059.96	0.0399343
1060.09	0.0379462
1060.22	0.0397614
1060.36	0.0383784
1060.49	0.0402801
1060.62	0.0383784
1060.76	0.0395021
1060.89	0.0390699
1061.03	0.0400207
1061.16	0.038292
1061.29	0.0388106
1061.43	0.0386377
1061.56	0.0409716
1061.69	0.039675
1061.83	0.0394157
1061.96	0.0399343
1062.1	0.0397614
1062.23	0.0400207
1062.36	0.0384649
1062.5	0.0387242
1062.63	0.0384649
1062.76	0.0395886
1062.9	0.0383784
1063.03	0.0395021
1063.17	0.0392428
1063.3	0.0397614
1063.43	0.0388106
1063.57	0.0391564
1063.7	0.0390699
1063.83	0.0394157
1063.97	0.0391564
1064.1	0.0395886
1064.23	0.0399343
1064.37	0.0378598
1064.5	0.0383784
1064.64	0.0400207
1064.77	0.0393292
1064.9	0.038292
1065.04	0.0397614
1065.17	0.0401072
1065.3	0.0388971
1065.44	0.0389835
1065.57	0.0386377
1065.71	0.0398479
1065.84	0.0389835
1065.97	0.039675
1066.11	0.0397614
1066.24	0.0389835
1066.37	0.0394157
1066.51	0.0376005
1066.64	0.0388971
1066.78	0.0378598
1066.91	0.0384649
1067.04	0.0391564
1067.18	0.0385513
1067.31	0.0395021
1067.44	0.0399343
1067.58	0.0391564
1067.71	0.0395886
1067.85	0.0389835
1067.98	0.0388971
1068.11	0.0389835
1068.25	0.039675
1068.38	0.0393292
1068.51	0.0384649
1068.65	0.0392428
1068.78	0.0392428
1068.92	0.0403665
1069.05	0.0389835
1069.18	0.0388971
1069.32	0.039675
1069.45	0.0401936
1069.58	0.0387242
1069.72	0.0395021
1069.85	0.0394157
1069.98	0.0387242
1070.12	0.039675
1070.25	0.0395886
1070.39	0.0379462
1070.52	0.0384649
1070.65	0.0394157
1070.79	0.0403665
1070.92	0.0389835
1071.05	0.0382055
1071.19	0.0383784
1071.32	0.0388106
1071.46	0.0394157
1071.59	0.0388971
1071.72	0.0385513
1071.86	0.0391564
1071.99	0.0391564
1072.12	0.0388971
1072.26	0.0394157
1072.39	0.0395021
1072.53	0.0402801
1072.66	0.0392428
1072.79	0.0390699
1072.93	0.0395021
1073.06	0.039675
1073.19	0.039675
1073.33	0.0399343
1073.46	0.0386377
1073.59	0.0393292
1073.73	0.0394157
1073.86	0.0388971
1074	0.0398479
1074.13	0.039675
1074.26	0.0394157
1074.4	0.0394157
1074.53	0.0395886
1074.66	0.0389835
1074.8	0.0394157
1074.93	0.0392428
1075.07	0.0376869
1075.2	0.0404529
1075.33	0.0390699
1075.47	0.0402801
1075.6	0.0398479
1075.73	0.0379462
1075.87	0.0388106
1076	0.0398479
1076.14	0.0394157
1076.27	0.0386377
1076.4	0.0400207
1076.54	0.0388106
1076.67	0.0395886
1076.8	0.0400207
1076.94	0.0393292
1077.07	0.0406258
1077.2	0.0399343
1077.34	0.0391564
1077.47	0.0390699
1077.61	0.0404529
1077.74	0.039675
1077.87	0.0379462
1078.01	0.0391564
1078.14	0.0391564
1078.27	0.0382055
1078.41	0.0381191
1078.54	0.0379462
1078.68	0.0389835
1078.81	0.0390699
1078.94	0.0400207
1079.08	0.039675
1079.21	0.0383784
1079.34	0.0388971
1079.48	0.0385513
1079.61	0.0404529
1079.74	0.0393292
1079.88	0.0384649
1080.01	0.0391564
1080.15	0.0392428
1080.28	0.0390699
1080.41	0.0388106
1080.55	0.0395886
1080.68	0.0382055
1080.81	0.0392428
1080.95	0.0380327
1081.08	0.0391564
1081.22	0.0392428
1081.35	0.0401072
1081.48	0.0393292
1081.62	0.0402801
1081.75	0.0392428
1081.88	0.0394157
1082.02	0.0395021
1082.15	0.0392428
1082.28	0.0382055
1082.42	0.0389835
1082.55	0.0395021
1082.69	0.0393292
1082.82	0.0401072
1082.95	0.0407987
1083.09	0.0393292
1083.22	0.0386377
1083.35	0.0395021
1083.49	0.0391564
1083.62	0.0395886
1083.75	0.0390699
1083.89	0.0390699
1084.02	0.0377734
1084.16	0.0386377
1084.29	0.0391564
1084.42	0.0388106
1084.56	0.038292
1084.69	0.0404529
1084.82	0.038292
1084.96	0.0384649
1085.09	0.0382055
1085.23	0.0403665
1085.36	0.0391564
1085.49	0.0394157
1085.63	0.0381191
1085.76	0.0399343
1085.89	0.039675
1086.03	0.0401936
1086.16	0.0397614
1086.29	0.0393292
1086.43	0.0393292
1086.56	0.0395886
1086.7	0.0393292
1086.83	0.0393292
1086.96	0.0394157
1087.1	0.0386377
1087.23	0.0397614
1087.36	0.0390699
1087.5	0.0381191
1087.63	0.0404529
1087.76	0.0393292
1087.9	0.037514
1088.03	0.0401936
1088.17	0.0398479
1088.3	0.0383784
1088.43	0.0392428
1088.57	0.0386377
1088.7	0.0383784
1088.83	0.0407122
1088.97	0.0393292
1089.1	0.0395886
1089.24	0.0387242
1089.37	0.039675
1089.5	0.0392428
1089.64	0.0390699
1089.77	0.0401936
1089.9	0.0388971
1090.04	0.0390699
1090.17	0.0388971
1090.3	0.0382055
1090.44	0.0390699
1090.57	0.0390699
1090.71	0.0401072
1090.84	0.0398479
1090.97	0.0395886
1091.11	0.0394157
1091.24	0.0385513
1091.37	0.0398479
1091.51	0.0388971
1091.64	0.0390699
1091.77	0.0392428
1091.91	0.0388971
1092.04	0.0395886
1092.18	0.0404529
1092.31	0.0373412
1092.44	0.0402801
1092.58	0.0388106
1092.71	0.0397614
1092.84	0.0377734
1092.98	0.0394157
1093.11	0.0386377
1093.24	0.0388971
1093.38	0.0395021
1093.51	0.0392428
1093.65	0.0383784
1093.78	0.0400207
1093.91	0.0386377
1094.05	0.0387242
1094.18	0.0385513
1094.31	0.0389835
1094.45	0.0390699
1094.58	0.039675
1094.71	0.0388106
1094.85	0.0397614
1094.98	0.0404529
1095.12	0.0399343
1095.25	0.0381191
1095.38	0.0391564
1095.52	0.038292
1095.65	0.0400207
1095.78	0.0388971
1095.92	0.0400207
1096.05	0.0373412
1096.18	0.0384649
1096.32	0.0392428
1096.45	0.0397614
1096.59	0.0385513
1096.72	0.0388106
1096.85	0.0400207
1096.99	0.0390699
1097.12	0.0385513
1097.25	0.0387242
1097.39	0.0387242
1097.52	0.0400207
1097.65	0.0403665
1097.79	0.0388971
1097.92	0.0400207
1098.06	0.0398479
1098.19	0.0397614
1098.32	0.0380327
1098.46	0.0389835
1098.59	0.0401936
1098.72	0.0395021
1098.86	0.0397614
1098.99	0.0392428
1099.12	0.0393292
1099.26	0.0399343
1099.39	0.0391564
1099.53	0.0389835
1099.66	0.0383784
1099.79	0.0387242
1099.93	0.0394157
1100.06	0.0403665
1100.19	0.0407987
1100.33	0.0390699
1100.46	0.0395886
1100.59	0.0387242
1100.73	0.0387242
1100.86	0.0395886
1100.99	0.0395021
1101.13	0.0389835
1101.26	0.0393292
1101.4	0.0382055
1101.53	0.0387242
1101.66	0.0401072
1101.8	0.039675
1101.93	0.0388971
1102.06	0.0392428
1102.2	0.0394157
1102.33	0.039675
1102.46	0.0405394
1102.6	0.0394157
1102.73	0.0402801
1102.87	0.0393292
1103	0.0395886
1103.13	0.0388106
1103.27	0.0398479
1103.4	0.0399343
1103.53	0.0395021
1103.67	0.0401072
1103.8	0.0394157
1103.93	0.0388971
1104.07	0.0393292
1104.2	0.0401072
1104.34	0.0397614
1104.47	0.0384649
1104.6	0.0391564
1104.74	0.0398479
1104.87	0.0381191
1105	0.0394157
1105.14	0.0393292
1105.27	0.0395886
1105.4	0.0386377
1105.54	0.0389835
1105.67	0.0386377
1105.8	0.0384649
1105.94	0.0404529
1106.07	0.0390699
1106.21	0.0405394
1106.34	0.0401936
1106.47	0.0388106
1106.61	0.0395021
1106.74	0.0389835
1106.87	0.039675
1107.01	0.0388971
1107.14	0.0391564
1107.27	0.0397614
1107.41	0.0398479
1107.54	0.0395021

