Source: Spectrum Viewer

Chart: Pulse Spectrum

Series: 
Wavelength (nm)	S (a.u.)
617.638	0.0280779
617.773	0.0273454
617.908	0.0277117
618.043	0.028322
618.178	0.0269181
618.313	0.0272233
618.448	0.0272233
618.583	0.0271623
618.718	0.0278337
618.853	0.0282
618.988	0.0274675
619.123	0.0275285
619.258	0.0267961
619.394	0.0282
619.529	0.0278337
619.664	0.0274675
619.799	0.0283831
619.934	0.0279558
620.069	0.0276506
620.204	0.0272233
620.339	0.0277727
620.474	0.0274065
620.609	0.0274065
620.744	0.0278948
620.879	0.0278337
621.014	0.0271013
621.149	0.0272844
621.284	0.026674
621.419	0.0275896
621.554	0.0270402
621.689	0.0274675
621.825	0.0283831
621.96	0.0278337
622.095	0.0280168
622.23	0.0275896
622.365	0.0272844
622.5	0.0275896
622.635	0.0271013
622.77	0.0275285
622.905	0.0280779
623.04	0.0268571
623.175	0.0274675
623.31	0.0264298
623.445	0.0272233
623.58	0.0272233
623.715	0.0278948
623.85	0.0281389
623.985	0.0278337
624.12	0.028322
624.255	0.0278948
624.39	0.0271623
624.525	0.0278948
624.661	0.0280779
624.796	0.0276506
624.931	0.0275285
625.066	0.0271623
625.201	0.0281389
625.336	0.0277117
625.471	0.0280779
625.606	0.0276506
625.741	0.0280779
625.876	0.0272233
626.011	0.0284441
626.146	0.0287493
626.281	0.0287493
626.416	0.0267961
626.551	0.0287493
626.686	0.0269792
626.821	0.0271013
626.956	0.0280168
627.091	0.0273454
627.226	0.0267961
627.361	0.0269792
627.496	0.0280779
627.631	0.0274675
627.766	0.0277727
627.901	0.0274675
628.036	0.0275285
628.171	0.0283831
628.307	0.0280779
628.442	0.0272233
628.577	0.0274675
628.712	0.0280168
628.847	0.0272233
628.982	0.0275285
629.117	0.0275285
629.252	0.028322
629.387	0.0272844
629.522	0.0278337
629.657	0.026613
629.792	0.0277117
629.927	0.0273454
630.062	0.0274675
630.197	0.0277727
630.332	0.0275285
630.467	0.0270402
630.602	0.0280168
630.737	0.0275896
630.872	0.0269792
631.007	0.0278337
631.142	0.0277117
631.277	0.0269792
631.412	0.0280779
631.547	0.0281389
631.682	0.0271623
631.817	0.0276506
631.952	0.0271623
632.087	0.0275896
632.222	0.0277117
632.357	0.0274675
632.492	0.0281389
632.627	0.0278948
632.762	0.0289324
632.897	0.0278948
633.032	0.0278337
633.167	0.0267961
633.302	0.0279558
633.437	0.0278337
633.572	0.0286272
633.707	0.0282
633.842	0.0277727
633.978	0.0275285
634.113	0.0286883
634.248	0.0278948
634.383	0.0284441
634.518	0.0278948
634.653	0.0280168
634.788	0.0274065
634.923	0.0279558
635.058	0.0282
635.193	0.0286883
635.328	0.0280168
635.463	0.0278337
635.598	0.0283831
635.733	0.0278948
635.868	0.0279558
636.003	0.0285662
636.138	0.0274675
636.273	0.0276506
636.408	0.0273454
636.543	0.0273454
636.678	0.0275285
636.813	0.0281389
636.948	0.0284441
637.083	0.0263688
637.218	0.0273454
637.353	0.0288714
637.488	0.0271623
637.623	0.0270402
637.758	0.0274065
637.893	0.0274065
638.028	0.0272844
638.163	0.0280168
638.298	0.0274065
638.433	0.0275896
638.568	0.0280779
638.703	0.0279558
638.838	0.0280168
638.973	0.028261
639.108	0.0272844
639.243	0.0282
639.378	0.0275285
639.513	0.0277727
639.648	0.028261
639.783	0.0277727
639.918	0.0285052
640.053	0.0278337
640.188	0.0278337
640.323	0.026735
640.458	0.0280168
640.593	0.0284441
640.728	0.0285052
640.863	0.0274065
640.998	0.0269792
641.133	0.0275896
641.268	0.0270402
641.403	0.0280779
641.538	0.0276506
641.673	0.0272844
641.808	0.0272844
641.943	0.0276506
642.078	0.0281389
642.213	0.0283831
642.348	0.0275285
642.483	0.0279558
642.618	0.0282
642.753	0.0275285
642.888	0.0280168
643.023	0.0274065
643.158	0.0275285
643.293	0.0277727
643.428	0.028261
643.563	0.0272233
643.698	0.0281389
643.833	0.0277117
643.968	0.0283831
644.103	0.0275285
644.237	0.026735
644.372	0.0264909
644.507	0.0274675
644.642	0.026674
644.777	0.0276506
644.912	0.0279558
645.047	0.0269792
645.182	0.0275285
645.317	0.0273454
645.452	0.0274675
645.587	0.0272844
645.722	0.0265519
645.857	0.0272844
645.992	0.0269792
646.127	0.026735
646.262	0.0289935
646.397	0.0281389
646.532	0.0275896
646.667	0.0274065
646.802	0.0280168
646.937	0.0280168
647.072	0.0272233
647.207	0.0264909
647.342	0.0282
647.477	0.0278337
647.612	0.0282
647.747	0.028261
647.882	0.0280168
648.017	0.0274065
648.152	0.0279558
648.287	0.0277117
648.422	0.0284441
648.557	0.0278948
648.692	0.0280779
648.827	0.0282
648.962	0.0278948
649.097	0.0278948
649.232	0.0272233
649.367	0.0271623
649.502	0.0275896
649.637	0.0280779
649.772	0.0276506
649.906	0.0281389
650.041	0.0269792
650.176	0.0272844
650.311	0.0275896
650.446	0.0275285
650.581	0.0283831
650.716	0.0274065
650.851	0.0280168
650.986	0.0269181
651.121	0.0275285
651.256	0.0272233
651.391	0.0274675
651.526	0.0282
651.661	0.0278948
651.796	0.0276506
651.931	0.026613
652.066	0.0275896
652.201	0.0277117
652.336	0.0267961
652.471	0.0280779
652.606	0.028261
652.741	0.0274675
652.876	0.0269792
653.011	0.0280779
653.146	0.0275896
653.281	0.0278337
653.415	0.0274675
653.55	0.0277727
653.685	0.0276506
653.82	0.0275285
653.955	0.0284441
654.09	0.0278337
654.225	0.0277727
654.36	0.0275896
654.495	0.0274675
654.63	0.0272844
654.765	0.0280779
654.9	0.0269792
655.035	0.0274675
655.17	0.0269792
655.305	0.0274065
655.44	0.0275285
655.575	0.0270402
655.71	0.0275285
655.845	0.0275285
655.98	0.0275896
656.115	0.0270402
656.25	0.0280779
656.384	0.026735
656.519	0.0278948
656.654	0.0273454
656.789	0.0283831
656.924	0.028261
657.059	0.0270402
657.194	0.0274675
657.329	0.0276506
657.464	0.0269792
657.599	0.0286272
657.734	0.0276506
657.869	0.0278948
658.004	0.0274675
658.139	0.0272233
658.274	0.0273454
658.409	0.0272233
658.544	0.0270402
658.679	0.0279558
658.813	0.0273454
658.948	0.028322
659.083	0.0275285
659.218	0.0281389
659.353	0.0274065
659.488	0.0272233
659.623	0.0275285
659.758	0.026735
659.893	0.0275285
660.028	0.0281389
660.163	0.028322
660.298	0.0267961
660.433	0.0270402
660.568	0.0274675
660.703	0.0275285
660.838	0.0271623
660.972	0.0274065
661.107	0.0274675
661.242	0.0285662
661.377	0.0275285
661.512	0.0275896
661.647	0.0278337
661.782	0.0271013
661.917	0.0280779
662.052	0.0275896
662.187	0.0277727
662.322	0.0278337
662.457	0.0280168
662.592	0.0278948
662.727	0.0273454
662.862	0.0282
662.996	0.0278948
663.131	0.028261
663.266	0.0274065
663.401	0.0275285
663.536	0.0271623
663.671	0.028322
663.806	0.0273454
663.941	0.0280168
664.076	0.0272844
664.211	0.0272844
664.346	0.0283831
664.481	0.0277117
664.616	0.0272844
664.75	0.0275285
664.885	0.0276506
665.02	0.0275285
665.155	0.0271623
665.29	0.0276506
665.425	0.0273454
665.56	0.0282
665.695	0.0267961
665.83	0.0267961
665.965	0.0277727
666.1	0.0272844
666.235	0.0275285
666.37	0.0269792
666.504	0.0272844
666.639	0.0271013
666.774	0.0273454
666.909	0.0271623
667.044	0.0275285
667.179	0.0274675
667.314	0.028261
667.449	0.0274065
667.584	0.0281389
667.719	0.0275285
667.854	0.0280779
667.989	0.0272844
668.123	0.0274065
668.258	0.0274065
668.393	0.0280168
668.528	0.0271013
668.663	0.0280779
668.798	0.0278948
668.933	0.0273454
669.068	0.0269181
669.203	0.0285662
669.338	0.0279558
669.473	0.0277727
669.607	0.0276506
669.742	0.0274675
669.877	0.0275285
670.012	0.0278337
670.147	0.0275285
670.282	0.0273454
670.417	0.0275285
670.552	0.0269181
670.687	0.0272233
670.822	0.0283831
670.957	0.0274065
671.091	0.0282
671.226	0.0275285
671.361	0.0273454
671.496	0.0277727
671.631	0.0271623
671.766	0.0280168
671.901	0.0275896
672.036	0.0271623
672.171	0.0286272
672.306	0.0272233
672.44	0.0274675
672.575	0.0270402
672.71	0.0268571
672.845	0.0277727
672.98	0.0281389
673.115	0.0274065
673.25	0.0277117
673.385	0.0285052
673.52	0.0274675
673.655	0.0281389
673.789	0.0274065
673.924	0.0274675
674.059	0.0271623
674.194	0.0271623
674.329	0.0272844
674.464	0.0272844
674.599	0.0277727
674.734	0.0278948
674.869	0.0280168
675.003	0.0280779
675.138	0.0277117
675.273	0.0275285
675.408	0.026674
675.543	0.0272233
675.678	0.028261
675.813	0.0274675
675.948	0.0271623
676.083	0.0272844
676.217	0.0271623
676.352	0.0277117
676.487	0.0275285
676.622	0.0275285
676.757	0.0275896
676.892	0.0278337
677.027	0.0282
677.162	0.0278337
677.297	0.0275285
677.431	0.0275285
677.566	0.0286272
677.701	0.0275896
677.836	0.0271013
677.971	0.0273454
678.106	0.0280779
678.241	0.0283831
678.376	0.0273454
678.511	0.0278948
678.645	0.0275896
678.78	0.0269792
678.915	0.0279558
679.05	0.0275896
679.185	0.0272844
679.32	0.0282
679.455	0.0271623
679.59	0.0270402
679.724	0.0271623
679.859	0.0277727
679.994	0.028261
680.129	0.0279558
680.264	0.0274065
680.399	0.026735
680.534	0.0277117
680.669	0.0280168
680.803	0.0278337
680.938	0.0270402
681.073	0.0283831
681.208	0.0275285
681.343	0.0277117
681.478	0.0279558
681.613	0.0279558
681.748	0.0281389
681.882	0.0275896
682.017	0.028261
682.152	0.0281389
682.287	0.0275285
682.422	0.0277727
682.557	0.0272233
682.692	0.0286883
682.827	0.0269792
682.961	0.0276506
683.096	0.0275896
683.231	0.0271013
683.366	0.0271013
683.501	0.0278337
683.636	0.0275896
683.771	0.0282
683.906	0.028322
684.04	0.0276506
684.175	0.0276506
684.31	0.0277117
684.445	0.0278948
684.58	0.0280779
684.715	0.0274675
684.85	0.0276506
684.984	0.0277727
685.119	0.0275896
685.254	0.0275285
685.389	0.0275285
685.524	0.0272233
685.659	0.0269792
685.794	0.0273454
685.928	0.0272844
686.063	0.0273454
686.198	0.0274675
686.333	0.0280168
686.468	0.0277117
686.603	0.0274065
686.738	0.0271013
686.872	0.0274675
687.007	0.0276506
687.142	0.0272844
687.277	0.0274675
687.412	0.0279558
687.547	0.0276506
687.682	0.0280168
687.816	0.0278337
687.951	0.0272844
688.086	0.0277117
688.221	0.0274065
688.356	0.026674
688.491	0.026735
688.626	0.0275285
688.76	0.0278337
688.895	0.0278948
689.03	0.0277727
689.165	0.0275285
689.3	0.0285052
689.435	0.0264298
689.57	0.0271013
689.704	0.0274065
689.839	0.0270402
689.974	0.0273454
690.109	0.0278337
690.244	0.0283831
690.379	0.028261
690.513	0.028322
690.648	0.0272233
690.783	0.0277727
690.918	0.0271623
691.053	0.0277117
691.188	0.0273454
691.323	0.0286272
691.457	0.0268571
691.592	0.0272233
691.727	0.0271623
691.862	0.0273454
691.997	0.0275285
692.132	0.0271013
692.266	0.0271013
692.401	0.0269792
692.536	0.0271623
692.671	0.0275285
692.806	0.0280168
692.941	0.0277117
693.075	0.0274065
693.21	0.0277117
693.345	0.0269792
693.48	0.0271623
693.615	0.0279558
693.75	0.0275896
693.885	0.026674
694.019	0.0274065
694.154	0.0269792
694.289	0.0276506
694.424	0.0270402
694.559	0.0274675
694.694	0.0277117
694.828	0.0272844
694.963	0.0277117
695.098	0.0274065
695.233	0.0281389
695.368	0.0268571
695.503	0.0274675
695.637	0.0286272
695.772	0.0277727
695.907	0.0278948
696.042	0.0272844
696.177	0.0278948
696.312	0.0277727
696.446	0.0275285
696.581	0.0269181
696.716	0.028322
696.851	0.0274675
696.986	0.0271623
697.12	0.0278337
697.255	0.0272233
697.39	0.0280168
697.525	0.0273454
697.66	0.026735
697.795	0.026613
697.929	0.028322
698.064	0.0274065
698.199	0.0277727
698.334	0.0279558
698.469	0.0272233
698.604	0.0277117
698.738	0.0272844
698.873	0.0275896
699.008	0.0275896
699.143	0.028261
699.278	0.0277727
699.412	0.0272233
699.547	0.0279558
699.682	0.0272844
699.817	0.0282
699.952	0.0276506
700.087	0.0286883
700.221	0.0274675
700.356	0.0278948
700.491	0.0277727
700.626	0.0276506
700.761	0.0275896
700.895	0.026735
701.03	0.0273454
701.165	0.0272233
701.3	0.0275896
701.435	0.0267961
701.57	0.0280168
701.704	0.0270402
701.839	0.0277117
701.974	0.0277727
702.109	0.0271623
702.244	0.0272233
702.378	0.0276506
702.513	0.0287493
702.648	0.0276506
702.783	0.0275285
702.918	0.0277727
703.052	0.0276506
703.187	0.0284441
703.322	0.028322
703.457	0.0277727
703.592	0.0271013
703.727	0.0281389
703.861	0.0275285
703.996	0.0271013
704.131	0.0269792
704.266	0.0287493
704.401	0.0283831
704.535	0.028261
704.67	0.0271623
704.805	0.0272844
704.94	0.0276506
705.075	0.0274065
705.209	0.0283831
705.344	0.0271623
705.479	0.026674
705.614	0.0280168
705.749	0.0271623
705.883	0.0285052
706.018	0.0286272
706.153	0.0275285
706.288	0.0275896
706.423	0.0276506
706.557	0.0278337
706.692	0.0278948
706.827	0.0278337
706.962	0.0269181
707.097	0.0277727
707.231	0.0277117
707.366	0.0288104
707.501	0.0282
707.636	0.0277727
707.771	0.0273454
707.905	0.0277117
708.04	0.0278948
708.175	0.0275896
708.31	0.0285052
708.445	0.0276506
708.579	0.0274675
708.714	0.0277117
708.849	0.0278948
708.984	0.0280168
709.118	0.0277727
709.253	0.0277117
709.388	0.0272233
709.523	0.0270402
709.658	0.0274675
709.792	0.0276506
709.927	0.0278948
710.062	0.0276506
710.197	0.0278948
710.332	0.0269792
710.466	0.0267961
710.601	0.0278948
710.736	0.0277117
710.871	0.0274065
711.006	0.0277727
711.14	0.0277727
711.275	0.0278337
711.41	0.028322
711.545	0.0277727
711.679	0.0280779
711.814	0.0281389
711.949	0.0280779
712.084	0.0286883
712.219	0.0270402
712.353	0.0277727
712.488	0.0277117
712.623	0.0274675
712.758	0.0270402
712.892	0.0280168
713.027	0.0280779
713.162	0.0277117
713.297	0.0275896
713.432	0.028322
713.566	0.0275285
713.701	0.0287493
713.836	0.0280779
713.971	0.028322
714.105	0.0275896
714.24	0.0283831
714.375	0.0279558
714.51	0.0277117
714.645	0.0271013
714.779	0.0276506
714.914	0.0276506
715.049	0.0280168
715.184	0.0280168
715.318	0.0276506
715.453	0.0271623
715.588	0.0286883
715.723	0.0275285
715.858	0.0287493
715.992	0.0273454
716.127	0.0278948
716.262	0.0272844
716.397	0.0272844
716.531	0.0275896
716.666	0.0273454
716.801	0.0277117
716.936	0.0267961
717.07	0.0272233
717.205	0.0274675
717.34	0.0271013
717.475	0.0272844
717.61	0.0271623
717.744	0.026674
717.879	0.0274675
718.014	0.0277117
718.149	0.0285662
718.283	0.0274675
718.418	0.0267961
718.553	0.0268571
718.688	0.0275896
718.822	0.0281389
718.957	0.0275285
719.092	0.0281389
719.227	0.0271013
719.361	0.028322
719.496	0.0272233
719.631	0.0276506
719.766	0.0287493
719.9	0.0281389
720.035	0.0271623
720.17	0.0278337
720.305	0.0275896
720.44	0.0274675
720.574	0.0279558
720.709	0.0278948
720.844	0.0278948
720.979	0.0274065
721.113	0.0281389
721.248	0.0272233
721.383	0.0269181
721.518	0.0281389
721.652	0.0278948
721.787	0.0270402
721.922	0.0278948
722.057	0.0274065
722.191	0.0280779
722.326	0.0289324
722.461	0.0281389
722.596	0.0269792
722.73	0.0271623
722.865	0.0275285
723	0.0274675
723.135	0.0277727
723.269	0.0275896
723.404	0.0278948
723.539	0.0287493
723.674	0.0275285
723.808	0.0276506
723.943	0.0277727
724.078	0.0280168
724.213	0.0274065
724.347	0.0279558
724.482	0.0270402
724.617	0.0280168
724.752	0.0278337
724.886	0.0269181
725.021	0.0278948
725.156	0.0275285
725.291	0.0275896
725.425	0.0278337
725.56	0.028261
725.695	0.0275896
725.829	0.0280168
725.964	0.0268571
726.099	0.0290545
726.234	0.0277117
726.368	0.0281389
726.503	0.0274675
726.638	0.0272844
726.773	0.0274675
726.907	0.0265519
727.042	0.0272844
727.177	0.0276506
727.312	0.0275285
727.446	0.0271623
727.581	0.0278948
727.716	0.0276506
727.851	0.0277117
727.985	0.0279558
728.12	0.0269792
728.255	0.0274675
728.389	0.0269181
728.524	0.0281389
728.659	0.0283831
728.794	0.0273454
728.928	0.0286272
729.063	0.028322
729.198	0.0272233
729.333	0.0279558
729.467	0.0282
729.602	0.0273454
729.737	0.0279558
729.872	0.0275896
730.006	0.0279558
730.141	0.0282
730.276	0.0283831
730.41	0.0270402
730.545	0.0263688
730.68	0.0275896
730.815	0.0280168
730.949	0.028261
731.084	0.0274065
731.219	0.0278948
731.354	0.0277117
731.488	0.0285052
731.623	0.0278337
731.758	0.0279558
731.892	0.0282
732.027	0.0274675
732.162	0.0273454
732.297	0.0275285
732.431	0.0277117
732.566	0.0275896
732.701	0.0277117
732.835	0.0287493
732.97	0.0276506
733.105	0.0278948
733.24	0.0285052
733.374	0.028322
733.509	0.0276506
733.644	0.0273454
733.779	0.0274675
733.913	0.0275285
734.048	0.0275896
734.183	0.0269181
734.317	0.0277117
734.452	0.0272233
734.587	0.0277117
734.722	0.0274065
734.856	0.0277117
734.991	0.0280779
735.126	0.026674
735.26	0.0283831
735.395	0.0277117
735.53	0.0278337
735.665	0.0275896
735.799	0.0270402
735.934	0.0273454
736.069	0.0289935
736.203	0.0280779
736.338	0.0277117
736.473	0.0282
736.607	0.0272844
736.742	0.0280168
736.877	0.0276506
737.012	0.0280779
737.146	0.0285052
737.281	0.0275285
737.416	0.0275896
737.55	0.0285052
737.685	0.0271013
737.82	0.028322
737.955	0.0278948
738.089	0.028261
738.224	0.0275896
738.359	0.0272844
738.493	0.0275896
738.628	0.0278948
738.763	0.0279558
738.897	0.0273454
739.032	0.0276506
739.167	0.0279558
739.302	0.0272844
739.436	0.0280779
739.571	0.0278337
739.706	0.0280779
739.84	0.0272233
739.975	0.0276506
740.11	0.0277727
740.244	0.0272844
740.379	0.0275285
740.514	0.0271013
740.649	0.0275896
740.783	0.0265519
740.918	0.0286883
741.053	0.0277117
741.187	0.0272233
741.322	0.0282
741.457	0.0278948
741.591	0.0274675
741.726	0.0273454
741.861	0.0271623
741.996	0.026674
742.13	0.028322
742.265	0.0281389
742.4	0.026674
742.534	0.0278337
742.669	0.0280779
742.804	0.0276506
742.938	0.0271623
743.073	0.0280168
743.208	0.0271623
743.342	0.0263688
743.477	0.0280779
743.612	0.0275896
743.747	0.0272233
743.881	0.0280168
744.016	0.0280168
744.151	0.0272233
744.285	0.0275896
744.42	0.0274675
744.555	0.0275896
744.689	0.0272233
744.824	0.0280168
744.959	0.0276506
745.093	0.0275896
745.228	0.0278337
745.363	0.0277727
745.497	0.0280779
745.632	0.0269181
745.767	0.0278948
745.901	0.0262467
746.036	0.0279558
746.171	0.0273454
746.305	0.0277727
746.44	0.0278337
746.575	0.0272233
746.71	0.0272233
746.844	0.0271013
746.979	0.0272844
747.114	0.0275896
747.248	0.0275285
747.383	0.0270402
747.518	0.0277117
747.652	0.0275896
747.787	0.0282
747.922	0.028322
748.056	0.0274675
748.191	0.0273454
748.326	0.0269792
748.46	0.0277117
748.595	0.0275285
748.73	0.0274675
748.864	0.0277117
748.999	0.0273454
749.134	0.0273454
749.268	0.0275285
749.403	0.0271623
749.538	0.0275285
749.672	0.0276506
749.807	0.0284441
749.942	0.0273454
750.076	0.028261
750.211	0.0268571
750.346	0.0282
750.48	0.0285052
750.615	0.0275896
750.75	0.0274675
750.884	0.0273454
751.019	0.0273454
751.154	0.0274675
751.288	0.026674
751.423	0.0277727
751.558	0.0284441
751.692	0.0275285
751.827	0.0283831
751.962	0.0278337
752.096	0.0274675
752.231	0.0282
752.366	0.0277117
752.5	0.0269792
752.635	0.0280168
752.77	0.0275896
752.904	0.0272844
753.039	0.0281389
753.174	0.0283831
753.308	0.0274675
753.443	0.0278948
753.578	0.0288104
753.712	0.0275896
753.847	0.0274675
753.982	0.0277727
754.116	0.0274675
754.251	0.026613
754.386	0.0272844
754.52	0.0275285
754.655	0.0276506
754.79	0.0275896
754.924	0.0269792
755.059	0.0276506
755.194	0.0281389
755.328	0.0277727
755.463	0.0274675
755.597	0.0278337
755.732	0.0278948
755.867	0.0278337
756.001	0.0282
756.136	0.0277727
756.271	0.0276506
756.405	0.0280168
756.54	0.0273454
756.675	0.026735
756.809	0.0271013
756.944	0.026735
757.079	0.0276506
757.213	0.0271013
757.348	0.0285052
757.483	0.0272844
757.617	0.0278948
757.752	0.0274065
757.887	0.0277727
758.021	0.0275285
758.156	0.0269792
758.29	0.0281389
758.425	0.0278337
758.56	0.0278337
758.694	0.0277727
758.829	0.0279558
758.964	0.0286883
759.098	0.0278948
759.233	0.0286883
759.368	0.0271013
759.502	0.0278337
759.637	0.0278948
759.772	0.0281389
759.906	0.0276506
760.041	0.0277117
760.175	0.0281389
760.31	0.0274065
760.445	0.0274675
760.579	0.0269792
760.714	0.0271623
760.849	0.0275285
760.983	0.0277117
761.118	0.0268571
761.253	0.0278337
761.387	0.0269181
761.522	0.0278948
761.656	0.0281389
761.791	0.0281389
761.926	0.0276506
762.06	0.0269792
762.195	0.0277727
762.33	0.028322
762.464	0.028322
762.599	0.0275285
762.733	0.0275285
762.868	0.0274065
763.003	0.0274675
763.137	0.0275896
763.272	0.0278337
763.407	0.0272233
763.541	0.0280779
763.676	0.0269792
763.811	0.0275285
763.945	0.0277117
764.08	0.0280168
764.214	0.0285052
764.349	0.0277727
764.484	0.0280168
764.618	0.0282
764.753	0.0269181
764.888	0.028322
765.022	0.0272844
765.157	0.0277727
765.291	0.0272844
765.426	0.0276506
765.561	0.0280779
765.695	0.028261
765.83	0.0285052
765.965	0.0276506
766.099	0.0272233
766.234	0.0267961
766.368	0.0275896
766.503	0.0279558
766.638	0.0275285
766.772	0.0281389
766.907	0.0279558
767.041	0.0274675
767.176	0.0279558
767.311	0.0276506
767.445	0.0270402
767.58	0.0267961
767.715	0.0277117
767.849	0.0261857
767.984	0.0278948
768.118	0.0272844
768.253	0.0280779
768.388	0.0275896
768.522	0.0280168
768.657	0.0270402
768.791	0.0271623
768.926	0.0272844
769.061	0.0275896
769.195	0.0277117
769.33	0.0270402
769.465	0.0271623
769.599	0.0277727
769.734	0.0274675
769.868	0.0278337
770.003	0.0280168
770.138	0.0280168
770.272	0.0271623
770.407	0.0275896
770.541	0.0278948
770.676	0.0273454
770.811	0.0279558
770.945	0.0272233
771.08	0.0273454
771.214	0.0272233
771.349	0.0278948
771.484	0.0283831
771.618	0.026674
771.753	0.0269181
771.887	0.0277727
772.022	0.0278337
772.157	0.0277117
772.291	0.0270402
772.426	0.0274675
772.56	0.0275285
772.695	0.0274065
772.83	0.0271013
772.964	0.0277727
773.099	0.0277117
773.233	0.0275896
773.368	0.0264909
773.503	0.0276506
773.637	0.0273454
773.772	0.0271013
773.906	0.0284441
774.041	0.0280779
774.176	0.0277727
774.31	0.0273454
774.445	0.0277727
774.579	0.0277727
774.714	0.0271623
774.849	0.0275285
774.983	0.0275285
775.118	0.026735
775.252	0.0275896
775.387	0.0275896
775.522	0.0281389
775.656	0.028322
775.791	0.0271013
775.925	0.0275285
776.06	0.0278337
776.195	0.0280168
776.329	0.0278337
776.464	0.0268571
776.598	0.0277117
776.733	0.0278948
776.868	0.0277117
777.002	0.0281389
777.137	0.0271623
777.271	0.0274065
777.406	0.0274675
777.54	0.0277727
777.675	0.0277727
777.81	0.026735
777.944	0.0269792
778.079	0.0280779
778.213	0.0284441
778.348	0.0273454
778.483	0.0277117
778.617	0.0276506
778.752	0.0274675
778.886	0.0278337
779.021	0.0269792
779.155	0.0276506
779.29	0.0278337
779.425	0.0274065
779.559	0.0277727
779.694	0.0271623
779.828	0.0275896
779.963	0.0277117
780.098	0.0267961
780.232	0.0285052
780.367	0.0277117
780.501	0.0270402
780.636	0.0283831
780.77	0.0280168
780.905	0.0271623
781.04	0.0279558
781.174	0.0280168
781.309	0.0276506
781.443	0.0274065
781.578	0.028322
781.712	0.0278337
781.847	0.0278337
781.982	0.028322
782.116	0.0270402
782.251	0.0265519
782.385	0.0276506
782.52	0.028261
782.654	0.0280779
782.789	0.0289324
782.924	0.0277117
783.058	0.028322
783.193	0.0276506
783.327	0.0274675
783.462	0.0272844
783.596	0.0278948
783.731	0.0275285
783.866	0.0275285
784	0.0269792
784.135	0.0277727
784.269	0.0276506
784.404	0.0272844
784.538	0.0277727
784.673	0.0280168
784.808	0.0274675
784.942	0.0274675
785.077	0.0269792
785.211	0.0278948
785.346	0.028261
785.48	0.0271013
785.615	0.028261
785.75	0.0276506
785.884	0.0281389
786.019	0.0282
786.153	0.0271623
786.288	0.0271013
786.422	0.0279558
786.557	0.0281389
786.691	0.0280168
786.826	0.0277117
786.961	0.0278337
787.095	0.0267961
787.23	0.0279558
787.364	0.0281389
787.499	0.0274675
787.633	0.0272844
787.768	0.0280168
787.902	0.0271623
788.037	0.0278337
788.172	0.0280168
788.306	0.0277117
788.441	0.0278337
788.575	0.0286883
788.71	0.0280168
788.844	0.0278948
788.979	0.0278948
789.113	0.0276506
789.248	0.0281389
789.383	0.0275896
789.517	0.0278948
789.652	0.0280779
789.786	0.0280168
789.921	0.0274675
790.055	0.0272844
790.19	0.0263078
790.324	0.0275285
790.459	0.0272844
790.594	0.0285662
790.728	0.0274065
790.863	0.0275285
790.997	0.0275896
791.132	0.0273454
791.266	0.0271623
791.401	0.0270402
791.535	0.028261
791.67	0.0278948
791.804	0.0275896
791.939	0.0270402
792.074	0.028261
792.208	0.0274675
792.343	0.0275896
792.477	0.0274675
792.612	0.0274675
792.746	0.0272844
792.881	0.0277117
793.015	0.0275285
793.15	0.0277727
793.284	0.0271013
793.419	0.0275896
793.553	0.0280168
793.688	0.0273454
793.823	0.0270402
793.957	0.0273454
794.092	0.0271013
794.226	0.0274065
794.361	0.026613
794.495	0.0280779
794.63	0.0275896
794.764	0.0280779
794.899	0.0281389
795.033	0.0278337
795.168	0.0277117
795.302	0.0280168
795.437	0.0276506
795.572	0.0278948
795.706	0.0285662
795.841	0.0282
795.975	0.0275896
796.11	0.0284441
796.244	0.028261
796.379	0.0279558
796.513	0.0280168
796.648	0.026613
796.782	0.0284441
796.917	0.0276506
797.051	0.0280168
797.186	0.0275896
797.32	0.0274675
797.455	0.0274065
797.589	0.0271013
797.724	0.0285662
797.859	0.0279558
797.993	0.0280168
798.128	0.0274675
798.262	0.0279558
798.397	0.0274675
798.531	0.0279558
798.666	0.0279558
798.8	0.0279558
798.935	0.0280168
799.069	0.0277117
799.204	0.0285662
799.338	0.0275285
799.473	0.0271623
799.607	0.028322
799.742	0.028322
799.876	0.0283831
800.011	0.0278948
800.145	0.028261
800.28	0.0273454
800.414	0.0280168
800.549	0.0278948
800.683	0.0282
800.818	0.0281389
800.953	0.0285052
801.087	0.0278948
801.222	0.0272844
801.356	0.028261
801.491	0.0276506
801.625	0.0280779
801.76	0.028322
801.894	0.028261
802.029	0.0291155
802.163	0.0281389
802.298	0.0286883
802.432	0.0289935
802.567	0.0288104
802.701	0.0286272
802.836	0.0291155
802.97	0.0294818
803.105	0.0286272
803.239	0.0288104
803.374	0.0284441
803.508	0.0287493
803.643	0.0294207
803.777	0.028261
803.912	0.0291766
804.046	0.0291155
804.181	0.0296649
804.315	0.0288714
804.45	0.0296649
804.584	0.0295428
804.719	0.0287493
804.853	0.0286272
804.988	0.0305805
805.122	0.0291155
805.257	0.0290545
805.391	0.0281389
805.526	0.0296039
805.66	0.0284441
805.795	0.0300311
805.929	0.0301532
806.064	0.0300311
806.198	0.029787
806.333	0.0295428
806.467	0.0308857
806.602	0.0297259
806.736	0.0300922
806.871	0.0304584
807.005	0.0296039
807.14	0.0305805
807.274	0.0312519
807.409	0.0316181
807.543	0.0322285
807.678	0.031374
807.812	0.0318013
807.947	0.0330831
808.081	0.0332052
808.216	0.0335103
808.35	0.0343649
808.485	0.0352805
808.619	0.0350974
808.754	0.0368064
808.888	0.0369285
809.023	0.039309
809.157	0.0397363
809.292	0.0413233
809.426	0.0411402
809.561	0.0457181
809.695	0.0501129
809.83	0.0506012
809.964	0.0542025
810.099	0.0707441
810.233	0.145883
810.368	0.267411
810.502	0.303241
810.637	0.873711
810.771	0.871574
810.906	1
811.04	1
811.175	1
811.309	1
811.444	1
811.578	1
811.713	0.997314
811.847	0.997803
811.982	0.993286
812.116	0.991699
812.251	0.985839
812.385	0.981627
812.519	0.976622
812.654	0.964414
812.788	0.95709
812.923	0.862357
813.057	0.613624
813.192	0.307697
813.326	0.0811207
813.461	0.0492584
813.595	0.0429103
813.73	0.0409571
813.864	0.0391259
813.999	0.0365623
814.133	0.0352805
814.268	0.0353415
814.402	0.0351584
814.537	0.034487
814.671	0.0329
814.806	0.0332662
814.94	0.0318623
815.075	0.0324727
815.209	0.0324727
815.344	0.0324116
815.478	0.0310078
815.612	0.0318013
815.747	0.0319844
815.881	0.0302142
816.016	0.0308857
816.15	0.0313129
816.285	0.0307026
816.419	0.0293597
816.554	0.0300311
816.688	0.0301532
816.823	0.0297259
816.957	0.0302753
817.092	0.0288104
817.226	0.0302142
817.361	0.0297259
817.495	0.0294207
817.63	0.0293597
817.764	0.0292376
817.898	0.0289935
818.033	0.0286272
818.167	0.028261
818.302	0.0280779
818.436	0.0292376
818.571	0.0291766
818.705	0.0286883
818.84	0.0289935
818.974	0.0278948
819.109	0.0288104
819.243	0.0290545
819.378	0.0288714
819.512	0.0285662
819.646	0.0283831
819.781	0.0280779
819.915	0.0282
820.05	0.0290545
820.184	0.0278337
820.319	0.0287493
820.453	0.0286883
820.588	0.0290545
820.722	0.0278337
820.857	0.0291766
820.991	0.028322
821.126	0.0285662
821.26	0.0289324
821.394	0.0277727
821.529	0.0274675
821.663	0.028322
821.798	0.0288714
821.932	0.0276506
822.067	0.0279558
822.201	0.0280168
822.336	0.0288104
822.47	0.0278948
822.605	0.0270402
822.739	0.0281389
822.873	0.0274675
823.008	0.0277727
823.142	0.0283831
823.277	0.0279558
823.411	0.0279558
823.546	0.0281389
823.68	0.0272233
823.815	0.0279558
823.949	0.0277117
824.083	0.0283831
824.218	0.028261
824.352	0.0277727
824.487	0.0275896
824.621	0.0272844
824.756	0.0278337
824.89	0.0272233
825.025	0.0289935
825.159	0.0279558
825.293	0.0276506
825.428	0.0277727
825.562	0.0280779
825.697	0.0278337
825.831	0.0272844
825.966	0.0280168
826.1	0.0285662
826.235	0.0279558
826.369	0.0274675
826.503	0.0274675
826.638	0.0282
826.772	0.026613
826.907	0.0276506
827.041	0.0279558
827.176	0.0274065
827.31	0.0278337
827.445	0.0275285
827.579	0.0281389
827.713	0.0278948
827.848	0.0278337
827.982	0.0275285
828.117	0.0287493
828.251	0.0275896
828.386	0.0277727
828.52	0.0278948
828.654	0.0277727
828.789	0.0278948
828.923	0.0280779
829.058	0.0278948
829.192	0.0288714
829.327	0.0279558
829.461	0.0285052
829.596	0.0279558
829.73	0.0280168
829.864	0.0277117
829.999	0.028322
830.133	0.026674
830.268	0.0271623
830.402	0.0274675
830.537	0.0274675
830.671	0.0274675
830.805	0.0277727
830.94	0.0282
831.074	0.0276506
831.209	0.0271623
831.343	0.0269181
831.478	0.0280779
831.612	0.0277117
831.746	0.0271013
831.881	0.0281389
832.015	0.0283831
832.15	0.0281389
832.284	0.0274675
832.418	0.0278337
832.553	0.028322
832.687	0.026674
832.822	0.0278337
832.956	0.0270402
833.091	0.0276506
833.225	0.0279558
833.359	0.0272844
833.494	0.0278337
833.628	0.0281389
833.763	0.0276506
833.897	0.028261
834.032	0.0278337
834.166	0.0272233
834.3	0.0273454
834.435	0.0274675
834.569	0.0277117
834.704	0.0264909
834.838	0.0277117
834.972	0.0268571
835.107	0.0275285
835.241	0.0283831
835.376	0.0279558
835.51	0.0277727
835.645	0.0277117
835.779	0.0273454
835.913	0.0273454
836.048	0.0278948
836.182	0.0277117
836.317	0.0279558
836.451	0.0275285
836.585	0.0275285
836.72	0.0275285
836.854	0.0277727
836.989	0.0278337
837.123	0.0267961
837.257	0.0284441
837.392	0.028261
837.526	0.0274065
837.661	0.0273454
837.795	0.0279558
837.929	0.0273454
838.064	0.0278337
838.198	0.026735
838.333	0.0279558
838.467	0.0270402
838.602	0.0278948
838.736	0.0271013
838.87	0.0271623
839.005	0.0277727
839.139	0.0282
839.274	0.0274675
839.408	0.0281389
839.542	0.0272844
839.677	0.0275896
839.811	0.0274065
839.946	0.0281389
840.08	0.0273454
840.214	0.0277727
840.349	0.0282
840.483	0.0277117
840.618	0.0277117
840.752	0.0269792
840.886	0.0269792
841.021	0.0272844
841.155	0.0280779
841.29	0.0274065
841.424	0.0274675
841.558	0.0286272
841.693	0.0274065
841.827	0.0284441
841.961	0.0276506
842.096	0.0273454
842.23	0.0282
842.365	0.0269181
842.499	0.0279558
842.633	0.0278337
842.768	0.0278948
842.902	0.0268571
843.037	0.0272844
843.171	0.0271013
843.305	0.028322
843.44	0.0275896
843.574	0.0280168
843.709	0.0284441
843.843	0.0279558
843.977	0.0280779
844.112	0.0275896
844.246	0.0278948
844.381	0.0276506
844.515	0.0277117
844.649	0.0275896
844.784	0.028322
844.918	0.0280168
845.052	0.0275896
845.187	0.0274065
845.321	0.0274065
845.456	0.0280779
845.59	0.0275285
845.724	0.0276506
845.859	0.0276506
845.993	0.0279558
846.128	0.0280168
846.262	0.0267961
846.396	0.0274675
846.531	0.0283831
846.665	0.0278337
846.799	0.0284441
846.934	0.0279558
847.068	0.0276506
847.203	0.0277727
847.337	0.0278948
847.471	0.0276506
847.606	0.0282
847.74	0.0275285
847.874	0.0272844
848.009	0.0280168
848.143	0.0277117
848.278	0.0272233
848.412	0.0278337
848.546	0.0272233
848.681	0.0271623
848.815	0.0277727
848.949	0.0277727
849.084	0.0270402
849.218	0.0267961
849.353	0.0289935
849.487	0.0276506
849.621	0.0270402
849.756	0.0275285
849.89	0.0274675
850.024	0.0269181
850.159	0.0275285
850.293	0.0273454
850.428	0.0278948
850.562	0.028322
850.696	0.0261857
850.831	0.0282
850.965	0.0274065
851.099	0.0280168
851.234	0.0274065
851.368	0.0279558
851.502	0.0274675
851.637	0.0271013
851.771	0.0275896
851.906	0.0272233
852.04	0.0275285
852.174	0.0274065
852.309	0.0276506
852.443	0.028322
852.577	0.0278337
852.712	0.0277117
852.846	0.0272844
852.98	0.0278948
853.115	0.0277727
853.249	0.0279558
853.384	0.0275896
853.518	0.0269181
853.652	0.0279558
853.787	0.0280779
853.921	0.0280168
854.055	0.0274675
854.19	0.0277727
854.324	0.0270402
854.458	0.0276506
854.593	0.0270402
854.727	0.0283831
854.861	0.0280168
854.996	0.0272233
855.13	0.0284441
855.265	0.0272233
855.399	0.0278948
855.533	0.0280168
855.668	0.0283831
855.802	0.0280168
855.936	0.0275285
856.071	0.0280168
856.205	0.028322
856.339	0.0274065
856.474	0.0270402
856.608	0.0277727
856.742	0.0282
856.877	0.0280779
857.011	0.0278337
857.145	0.0278337
857.28	0.0272233
857.414	0.0282
857.549	0.0267961
857.683	0.0286883
857.817	0.0274675
857.952	0.0278337
858.086	0.0272233
858.22	0.0275285
858.355	0.0275285
858.489	0.0276506
858.623	0.0274675
858.758	0.028261
858.892	0.0270402
859.026	0.0275896
859.161	0.0273454
859.295	0.0269792
859.429	0.0275285
859.564	0.0281389
859.698	0.0280168
859.832	0.0285052
859.967	0.026735
860.101	0.026735
860.235	0.028261
860.37	0.0274065
860.504	0.0282
860.638	0.0277117
860.773	0.0272844
860.907	0.0280168
861.041	0.0275896
861.176	0.0275285
861.31	0.0280779
861.444	0.0276506
861.579	0.0282
861.713	0.0276506
861.847	0.0270402
861.982	0.0269181
862.116	0.0272844
862.25	0.0275896
862.385	0.0274675
862.519	0.0277727
862.653	0.0270402
862.788	0.0275285
862.922	0.0281389
863.056	0.0277727
863.191	0.0277117
863.325	0.0278337
863.459	0.0272844
863.594	0.0279558
863.728	0.0272844
863.862	0.026674
863.997	0.028322
864.131	0.0285052
864.265	0.0276506
864.4	0.0273454
864.534	0.0270402
864.668	0.0274675
864.803	0.026735
864.937	0.0285052
865.071	0.028322
865.206	0.0274675
865.34	0.0269181
865.474	0.0271013
865.609	0.0280168
865.743	0.0277727
865.877	0.0272844
866.012	0.0274065
866.146	0.0276506
866.28	0.028322
866.415	0.0280168
866.549	0.0272844
866.683	0.0273454
866.818	0.0274065
866.952	0.0272844
867.086	0.0285052
867.221	0.0274675
867.355	0.0269181
867.489	0.028322
867.623	0.0275285
867.758	0.0276506
867.892	0.026735
868.026	0.0272233
868.161	0.0280168
868.295	0.0272844
868.429	0.0278948
868.564	0.0271013
868.698	0.0277117
868.832	0.028261
868.967	0.0275285
869.101	0.0276506
869.235	0.0275896
869.37	0.0278948
869.504	0.0274675
869.638	0.0273454
869.773	0.026674
869.907	0.0275285
870.041	0.0268571
870.175	0.0273454
870.31	0.026735
870.444	0.0273454
870.578	0.0273454
870.713	0.0274065
870.847	0.0268571
870.981	0.0278337
871.116	0.0273454
871.25	0.0274675
871.384	0.028261
871.519	0.0272844
871.653	0.0275896
871.787	0.0278337
871.921	0.0285052
872.056	0.0281389
872.19	0.028322
872.324	0.0276506
872.459	0.0269792
872.593	0.0275896
872.727	0.0280168
872.862	0.0279558
872.996	0.0269181
873.13	0.0274675
873.264	0.0276506
873.399	0.0272233
873.533	0.0276506
873.667	0.0272844
873.802	0.0279558
873.936	0.0275285
874.07	0.0278948
874.205	0.0284441
874.339	0.0279558
874.473	0.0280779
874.607	0.0274065
874.742	0.0275285
874.876	0.0281389
875.01	0.0273454
875.145	0.0263688
875.279	0.028322
875.413	0.0271013
875.548	0.0278337
875.682	0.0277727
875.816	0.0268571
875.95	0.0277117
876.085	0.0282
876.219	0.0278948
876.353	0.0271623
876.488	0.0280168
876.622	0.0272233
876.756	0.0274065
876.89	0.0271013
877.025	0.0277727
877.159	0.028261
877.293	0.0272844
877.428	0.0272233
877.562	0.0275896
877.696	0.0265519
877.83	0.0277117
877.965	0.026613
878.099	0.0271623
878.233	0.0273454
878.368	0.0273454
878.502	0.0271013
878.636	0.0275896
878.77	0.0275896
878.905	0.0282
879.039	0.0278337
879.173	0.0269792
879.308	0.0273454
879.442	0.0272844
879.576	0.0278337
879.71	0.0276506
879.845	0.0275285
879.979	0.0272233
880.113	0.0275896
880.248	0.0275896
880.382	0.0279558
880.516	0.0277117
880.65	0.0269792
880.785	0.0271623
880.919	0.0275896
881.053	0.0276506
881.188	0.028322
881.322	0.0276506
881.456	0.0274065
881.59	0.0275285
881.725	0.0284441
881.859	0.0277727
881.993	0.0269792
882.127	0.0279558
882.262	0.0284441
882.396	0.026674
882.53	0.0269181
882.665	0.0277117
882.799	0.0264909
882.933	0.0283831
883.067	0.0277727
883.202	0.0280779
883.336	0.0280779
883.47	0.0272233
883.604	0.0280168
883.739	0.0275285
883.873	0.0273454
884.007	0.0276506
884.142	0.0283831
884.276	0.026735
884.41	0.0273454
884.544	0.0277727
884.679	0.0283831
884.813	0.028322
884.947	0.0275896
885.081	0.0285052
885.216	0.0272233
885.35	0.0274675
885.484	0.0268571
885.618	0.0272233
885.753	0.0279558
885.887	0.0271013
886.021	0.0280779
886.155	0.0280779
886.29	0.0278948
886.424	0.0274065
886.558	0.0276506
886.693	0.028322
886.827	0.0279558
886.961	0.0273454
887.095	0.0274675
887.23	0.0284441
887.364	0.0274675
887.498	0.0277727
887.632	0.0270402
887.767	0.0272233
887.901	0.0275896
888.035	0.0272844
888.169	0.026674
888.304	0.0277117
888.438	0.0286272
888.572	0.0271623
888.706	0.0282
888.841	0.0275896
888.975	0.0270402
889.109	0.0273454
889.243	0.0269792
889.378	0.0268571
889.512	0.0272233
889.646	0.0277727
889.78	0.0280168
889.915	0.0276506
890.049	0.0276506
890.183	0.0268571
890.317	0.0280168
890.452	0.0288714
890.586	0.0276506
890.72	0.0275285
890.854	0.0262467
890.989	0.0274065
891.123	0.0264909
891.257	0.0280779
891.391	0.0270402
891.526	0.0277117
891.66	0.0269181
891.794	0.0272844
891.928	0.0278948
892.063	0.0277727
892.197	0.0272844
892.331	0.0278948
892.465	0.0274065
892.6	0.0277117
892.734	0.0278337
892.868	0.028261
893.002	0.0278337
893.137	0.0272233
893.271	0.0276506
893.405	0.0280779
893.539	0.0277727
893.674	0.0284441
893.808	0.0276506
893.942	0.0281389
894.076	0.0275285
894.21	0.0279558
894.345	0.0274675
894.479	0.0269181
894.613	0.0272844
894.747	0.0275896
894.882	0.0277727
895.016	0.0271623
895.15	0.028261
895.284	0.0269181
895.419	0.0273454
895.553	0.0274675
895.687	0.0278948
895.821	0.0279558
895.956	0.0277727
896.09	0.0275285
896.224	0.0274065
896.358	0.0277727
896.492	0.0285662
896.627	0.028261
896.761	0.0273454
896.895	0.028261
897.029	0.0269181
897.164	0.0279558
897.298	0.0277727
897.432	0.0274675
897.566	0.0282
897.701	0.028261
897.835	0.0282
897.969	0.0277727
898.103	0.0272233
898.237	0.0278337
898.372	0.0282
898.506	0.028322
898.64	0.0271623
898.774	0.0280168
898.909	0.028322
899.043	0.028261
899.177	0.0282
899.311	0.0267961
899.445	0.0271623
899.58	0.0277727
899.714	0.0274065
899.848	0.0282
899.982	0.0279558
900.117	0.0273454
900.251	0.0277117
900.385	0.0275896
900.519	0.028261
900.653	0.0276506
900.788	0.0277117
900.922	0.0273454
901.056	0.0281389
901.19	0.0273454
901.325	0.0276506
901.459	0.0283831
901.593	0.0281389
901.727	0.0275285
901.861	0.0278337
901.996	0.0264298
902.13	0.0269181
902.264	0.0272233
902.398	0.0276506
902.532	0.0279558
902.667	0.0280168
902.801	0.0278337
902.935	0.0282
903.069	0.0271013
903.204	0.0271623
903.338	0.0275896
903.472	0.0271013
903.606	0.0282
903.74	0.0275896
903.875	0.0275896
904.009	0.0272844
904.143	0.0279558
904.277	0.028322
904.411	0.0277727
904.546	0.0269181
904.68	0.0275896
904.814	0.0276506
904.948	0.0277117
905.082	0.0278337
905.217	0.0272233
905.351	0.0278337
905.485	0.0280168
905.619	0.0275285
905.753	0.026735
905.888	0.0278948
906.022	0.0278948
906.156	0.0268571
906.29	0.028261
906.424	0.0269181
906.559	0.0278337
906.693	0.0278948
906.827	0.0286272
906.961	0.0280779
907.095	0.0277117
907.23	0.0282
907.364	0.0272844
907.498	0.0285662
907.632	0.0272844
907.766	0.028261
907.901	0.0274675
908.035	0.0273454
908.169	0.0278948
908.303	0.0277117
908.437	0.0271013
908.572	0.0277727
908.706	0.0281389
908.84	0.0280779
908.974	0.0277117
909.108	0.0274675
909.243	0.0273454
909.377	0.0274065
909.511	0.0269792
909.645	0.0273454
909.779	0.0284441
909.914	0.0278337
910.048	0.028322
910.182	0.0280779
910.316	0.0286272
910.45	0.028322
910.585	0.0279558
910.719	0.0280779
910.853	0.0272233
910.987	0.0277117
911.121	0.0280779
911.255	0.0276506
911.39	0.0272233
911.524	0.0275896
911.658	0.0273454
911.792	0.0278337
911.926	0.0273454
912.061	0.0274065
912.195	0.028261
912.329	0.0286883
912.463	0.0277117
912.597	0.0280779
912.732	0.0275285
912.866	0.0277117
913	0.0275285
913.134	0.0273454
913.268	0.0277727
913.402	0.0287493
913.537	0.0278337
913.671	0.0274065
913.805	0.0285662
913.939	0.0269181
914.073	0.0271013
914.208	0.0275285
914.342	0.0275285
914.476	0.0274675
914.61	0.0272844
914.744	0.028322
914.878	0.0278337
915.013	0.0275896
915.147	0.0277117
915.281	0.0267961
915.415	0.0276506
915.549	0.0268571
915.683	0.0274675
915.818	0.0277727
915.952	0.0272233
916.086	0.0277117
916.22	0.0280779
916.354	0.0280779
916.488	0.0279558
916.623	0.0280779
916.757	0.0278337
916.891	0.0280168
917.025	0.0282
917.159	0.0276506
917.293	0.0271623
917.428	0.0278948
917.562	0.0278337
917.696	0.0285052
917.83	0.0280779
917.964	0.0272844
918.098	0.0272233
918.233	0.0276506
918.367	0.0283831
918.501	0.0277727
918.635	0.0270402
918.769	0.0272233
918.903	0.0268571
919.038	0.0277117
919.172	0.0274675
919.306	0.0271013
919.44	0.0272233
919.574	0.0274675
919.708	0.0271013
919.843	0.0274065
919.977	0.0275896
920.111	0.0281389
920.245	0.0275896
920.379	0.0280168
920.513	0.026735
920.648	0.0278337
920.782	0.028261
920.916	0.0267961
921.05	0.0280168
921.184	0.0268571
921.318	0.0287493
921.453	0.0272233
921.587	0.0272233
921.721	0.0265519
921.855	0.0270402
921.989	0.0279558
922.123	0.0277117
922.257	0.0277727
922.392	0.0269792
922.526	0.0281389
922.66	0.0280168
922.794	0.0280168
922.928	0.0278337
923.062	0.0265519
923.197	0.0277117
923.331	0.0272233
923.465	0.0279558
923.599	0.0277727
923.733	0.0279558
923.867	0.0285662
924.001	0.028322
924.136	0.0275896
924.27	0.0278337
924.404	0.028322
924.538	0.0278948
924.672	0.0263688
924.806	0.0277727
924.94	0.0270402
925.075	0.0272233
925.209	0.0274065
925.343	0.0279558
925.477	0.0273454
925.611	0.0275285
925.745	0.0271013
925.879	0.0279558
926.014	0.0269181
926.148	0.0278337
926.282	0.0274065
926.416	0.028322
926.55	0.0280779
926.684	0.0271013
926.818	0.0278337
926.953	0.0275896
927.087	0.0280168
927.221	0.0275896
927.355	0.0267961
927.489	0.0280168
927.623	0.0274675
927.757	0.0272233
927.892	0.0273454
928.026	0.0278948
928.16	0.0277727
928.294	0.0270402
928.428	0.0278337
928.562	0.0272844
928.696	0.028261
928.831	0.0275896
928.965	0.0267961
929.099	0.0278337
929.233	0.0282
929.367	0.028322
929.501	0.0276506
929.635	0.0286883
929.769	0.0286272
929.904	0.0280779
930.038	0.0274675
930.172	0.0275896
930.306	0.0274675
930.44	0.0275896
930.574	0.0275896
930.708	0.0274675
930.843	0.0280168
930.977	0.0280779
931.111	0.0272233
931.245	0.0276506
931.379	0.0279558
931.513	0.0273454
931.647	0.0279558
931.781	0.0276506
931.916	0.0270402
932.05	0.026735
932.184	0.0267961
932.318	0.0274065
932.452	0.0280779
932.586	0.0278337
932.72	0.026613
932.854	0.0269792
932.989	0.0272233
933.123	0.0280168
933.257	0.0276506
933.391	0.0280779
933.525	0.0280779
933.659	0.0277117
933.793	0.0273454
933.927	0.0280168
934.061	0.0277117
934.196	0.0273454
934.33	0.0274065
934.464	0.0282
934.598	0.0280779
934.732	0.0274675
934.866	0.0274065
935	0.0276506
935.134	0.0272233
935.269	0.0280779
935.403	0.0269181
935.537	0.0274675
935.671	0.0282
935.805	0.0278337
935.939	0.0274675
936.073	0.0271013
936.207	0.0272844
936.341	0.0274065
936.476	0.0275896
936.61	0.0272233
936.744	0.0274675
936.878	0.0273454
937.012	0.0270402
937.146	0.0281389
937.28	0.0269792
937.414	0.0272844
937.548	0.0271623
937.683	0.0271623
937.817	0.0271623
937.951	0.0269792
938.085	0.0267961
938.219	0.0278948
938.353	0.0280779
938.487	0.0268571
938.621	0.0272844
938.755	0.0272233
938.889	0.0274675
939.024	0.0274675
939.158	0.0280168
939.292	0.0274675
939.426	0.0277727
939.56	0.0272844
939.694	0.0274065
939.828	0.0284441
939.962	0.0277727
940.096	0.0285052
940.231	0.0280779
940.365	0.0275285
940.499	0.0274065
940.633	0.0279558
940.767	0.0274065
940.901	0.0272844
941.035	0.0274675
941.169	0.0276506
941.303	0.0272844
941.437	0.0280779
941.571	0.0280779
941.706	0.0256363
941.84	0.0280168
941.974	0.0275896
942.108	0.0282
942.242	0.0276506
942.376	0.0279558
942.51	0.0270402
942.644	0.0270402
942.778	0.0279558
942.912	0.0271623
943.047	0.0281389
943.181	0.0273454
943.315	0.0271623
943.449	0.0265519
943.583	0.0271013
943.717	0.0270402
943.851	0.0277117
943.985	0.0280779
944.119	0.0272233
944.253	0.0275285
944.387	0.0278337
944.522	0.0278337
944.656	0.0264909
944.79	0.0278948
944.924	0.0277727
945.058	0.0280168
945.192	0.028322
945.326	0.0274675
945.46	0.0277117
945.594	0.0269792
945.728	0.0280168
945.862	0.0272844
945.996	0.0281389
946.131	0.0282
946.265	0.0272233
946.399	0.0273454
946.533	0.0275896
946.667	0.0283831
946.801	0.0277727
946.935	0.0275285
947.069	0.0277727
947.203	0.0274675
947.337	0.0269792
947.471	0.0277117
947.605	0.0276506
947.739	0.0274065
947.874	0.028261
948.008	0.0270402
948.142	0.0274065
948.276	0.0272844
948.41	0.0275896
948.544	0.0278948
948.678	0.0278948
948.812	0.0277117
948.946	0.0279558
949.08	0.0274675
949.214	0.0273454
949.348	0.0272233
949.482	0.0276506
949.617	0.0273454
949.751	0.0271623
949.885	0.0281389
950.019	0.0285052
950.153	0.0276506
950.287	0.0274065
950.421	0.0275896
950.555	0.0280168
950.689	0.0280168
950.823	0.0271623
950.957	0.0271623
951.091	0.0273454
951.225	0.0275896
951.359	0.0272233
951.493	0.0284441
951.628	0.0276506
951.762	0.0275285
951.896	0.0264298
952.03	0.0272844
952.164	0.0275896
952.298	0.0286272
952.432	0.0273454
952.566	0.0279558
952.7	0.0278948
952.834	0.0274065
952.968	0.0277727
953.102	0.026735
953.236	0.0269181
953.37	0.0277727
953.504	0.0278948
953.639	0.0279558
953.773	0.0277117
953.907	0.0277117
954.041	0.0274065
954.175	0.0269792
954.309	0.0270402
954.443	0.0269181
954.577	0.0272233
954.711	0.0268571
954.845	0.0288714
954.979	0.0269181
955.113	0.0275285
955.247	0.0274065
955.381	0.0275285
955.515	0.0274675
955.649	0.028261
955.783	0.0275896
955.917	0.0268571
956.052	0.0274065
956.186	0.0278337
956.32	0.026674
956.454	0.028261
956.588	0.0272844
956.722	0.0276506
956.856	0.0272844
956.99	0.0281389
957.124	0.0274675
957.258	0.0276506
957.392	0.0274675
957.526	0.0278337
957.66	0.0269792
957.794	0.0275285
957.928	0.0279558
958.062	0.0271623
958.196	0.0268571
958.33	0.0274675
958.464	0.0267961
958.598	0.0275896
958.733	0.0274675
958.867	0.0275896
959.001	0.0276506
959.135	0.0274065
959.269	0.0268571
959.403	0.0271623
959.537	0.0274065
959.671	0.0280168
959.805	0.0274065
959.939	0.0288714
960.073	0.0275896
960.207	0.0278948
960.341	0.0269181
960.475	0.0274675
960.609	0.0272233
960.743	0.0287493
960.877	0.0282
961.011	0.0292376
961.145	0.0280168
961.279	0.0280168
961.413	0.0274065
961.547	0.0274675
961.681	0.0273454
961.815	0.0271623
961.949	0.0271013
962.083	0.0274065
962.218	0.0277727
962.352	0.0272233
962.486	0.0277117
962.62	0.0279558
962.754	0.026674
962.888	0.0281389
963.022	0.0273454
963.156	0.0281389
963.29	0.0284441
963.424	0.0275285
963.558	0.0274675
963.692	0.0275285
963.826	0.0271013
963.96	0.0281389
964.094	0.0279558
964.228	0.0269181
964.362	0.0272844
964.496	0.0275285
964.63	0.0281389
964.764	0.026613
964.898	0.0286883
965.032	0.0272844
965.166	0.028261
965.3	0.0283831
965.434	0.0272844
965.568	0.0275896
965.702	0.0281389
965.836	0.0272844
965.97	0.026613
966.104	0.026735
966.238	0.0279558
966.372	0.0271013
966.506	0.0278948
966.64	0.0277117
966.774	0.0285662
966.908	0.0269792
967.043	0.0276506
967.177	0.0273454
967.311	0.0280779
967.445	0.0275285
967.579	0.0274675
967.713	0.0274675
967.847	0.0277727
967.981	0.0274675
968.115	0.0278337
968.249	0.0281389
968.383	0.028261
968.517	0.0275285
968.651	0.0274675
968.785	0.0278948
968.919	0.0277727
969.053	0.0278948
969.187	0.0275285
969.321	0.0275896
969.455	0.0273454
969.589	0.0272844
969.723	0.0282
969.857	0.0286272
969.991	0.0270402
970.125	0.0284441
970.259	0.0270402
970.393	0.0270402
970.527	0.028261
970.661	0.028261
970.795	0.0277727
970.929	0.0280779
971.063	0.0286272
971.197	0.0271013
971.331	0.0279558
971.465	0.0277727
971.599	0.0273454
971.733	0.0281389
971.867	0.0278948
972.001	0.0275896
972.135	0.0267961
972.269	0.0277727
972.403	0.028261
972.537	0.0282
972.671	0.0276506
972.805	0.0288104
972.939	0.0265519
973.073	0.0274065
973.207	0.0274675
973.341	0.0277117
973.475	0.026613
973.609	0.0271013
973.743	0.0271013
973.877	0.0280168
974.011	0.0278948
974.145	0.0280779
974.279	0.0269181
974.413	0.0277727
974.547	0.0275285
974.681	0.0277727
974.815	0.0278948
974.949	0.0277117
975.083	0.0274065
975.217	0.0272844
975.351	0.0271013
975.485	0.0275896
975.619	0.0273454
975.753	0.0274065
975.887	0.0273454
976.021	0.0274675
976.155	0.0277727
976.289	0.0277117
976.423	0.0280168
976.557	0.0271623
976.691	0.0269792
976.825	0.0282
976.959	0.0276506
977.093	0.0275896
977.227	0.028322
977.361	0.0275896
977.495	0.0272233
977.629	0.0278337
977.763	0.0275896
977.897	0.0280168
978.031	0.0276506
978.165	0.0279558
978.299	0.0277727
978.433	0.0285662
978.567	0.0270402
978.701	0.0270402
978.835	0.0277727
978.969	0.0282
979.103	0.0267961
979.237	0.0274065
979.371	0.0275285
979.505	0.0274675
979.639	0.0279558
979.773	0.0274065
979.907	0.0278337
980.041	0.0278948
980.175	0.0274675
980.308	0.0274675
980.442	0.0278337
980.576	0.0278948
980.71	0.0282
980.844	0.0271013
980.978	0.0275285
981.112	0.0277117
981.246	0.0273454
981.38	0.0282
981.514	0.0286272
981.648	0.0269792
981.782	0.0269792
981.916	0.028322
982.05	0.0271013
982.184	0.0274675
982.318	0.0279558
982.452	0.0274675
982.586	0.0278337
982.72	0.0270402
982.854	0.0271623
982.988	0.0274675
983.122	0.0269792
983.256	0.0265519
983.39	0.0278337
983.524	0.0280779
983.658	0.0273454
983.792	0.0275285
983.926	0.026735
984.06	0.0271623
984.194	0.0280168
984.328	0.0278948
984.462	0.0279558
984.596	0.0272233
984.73	0.0270402
984.864	0.0275896
984.998	0.0277727
985.132	0.026674
985.265	0.0276506
985.399	0.0285052
985.533	0.0281389
985.667	0.0278337
985.801	0.0271623
985.935	0.0274675
986.069	0.0279558
986.203	0.0274675
986.337	0.0264909
986.471	0.0275896
986.605	0.0269792
986.739	0.0283831
986.873	0.0275285
987.007	0.0278337
987.141	0.0264909
987.275	0.0273454
987.409	0.0268571
987.543	0.0277117
987.677	0.0285662
987.811	0.028261
987.945	0.0268571
988.079	0.0285662
988.213	0.0275285
988.347	0.0282
988.481	0.0273454
988.614	0.0273454
988.748	0.0272844
988.882	0.0277727
989.016	0.0283831
989.15	0.0277117
989.284	0.0279558
989.418	0.0282
989.552	0.0274065
989.686	0.0274675
989.82	0.0279558
989.954	0.0272233
990.088	0.0274675
990.222	0.0274675
990.356	0.0279558
990.49	0.0273454
990.624	0.0275285
990.758	0.0278337
990.892	0.0280779
991.026	0.0278337
991.16	0.0278948
991.294	0.0280779
991.427	0.0281389
991.561	0.0276506
991.695	0.0274675
991.829	0.0272233
991.963	0.0276506
992.097	0.0279558
992.231	0.028261
992.365	0.0274675
992.499	0.0270402
992.633	0.0278337
992.767	0.0279558
992.901	0.028322
993.035	0.0275896
993.169	0.028261
993.303	0.0278948
993.437	0.0274675
993.571	0.0276506
993.704	0.0270402
993.838	0.0279558
993.972	0.0280168
994.106	0.0275896
994.24	0.0287493
994.374	0.0274675
994.508	0.0274675
994.642	0.028322
994.776	0.0272844
994.91	0.0275896
995.044	0.0271623
995.178	0.0274675
995.312	0.0277117
995.446	0.0271013
995.58	0.0276506
995.714	0.0277727
995.847	0.0277727
995.981	0.0284441
996.115	0.0272233
996.249	0.0276506
996.383	0.0271623
996.517	0.028322
996.651	0.0269792
996.785	0.0277117
996.919	0.0285052
997.053	0.0278948
997.187	0.0267961
997.321	0.0278337
997.455	0.0269792
997.589	0.0282
997.722	0.0276506
997.856	0.0273454
997.99	0.026735
998.124	0.0277727
998.258	0.026735
998.392	0.0270402
998.526	0.0278948
998.66	0.0280779
998.794	0.0277117
998.928	0.0275285
999.062	0.0274065
999.196	0.0277117
999.33	0.0286272
999.464	0.0277117
999.597	0.0275896
999.731	0.0277117
999.865	0.0282
999.999	0.0277727
1000.13	0.0269181
1000.27	0.0274065
1000.4	0.0277727
1000.53	0.0271013
1000.67	0.0285052
1000.8	0.0272844
1000.94	0.0277727
1001.07	0.0285662
1001.2	0.0275285
1001.34	0.0277727
1001.47	0.0281389
1001.61	0.0274675
1001.74	0.0275285
1001.87	0.0279558
1002.01	0.0273454
1002.14	0.0274675
1002.28	0.0272233
1002.41	0.0269181
1002.54	0.026674
1002.68	0.0279558
1002.81	0.0278948
1002.95	0.0278948
1003.08	0.0275285
1003.21	0.0277117
1003.35	0.0281389
1003.48	0.0277727
1003.61	0.0272844
1003.75	0.0280779
1003.88	0.0277727
1004.02	0.0268571
1004.15	0.0269792
1004.28	0.0268571
1004.42	0.0275896
1004.55	0.0274675
1004.69	0.0274675
1004.82	0.0269792
1004.95	0.0272844
1005.09	0.0276506
1005.22	0.0280168
1005.36	0.0278948
1005.49	0.0271623
1005.62	0.0268571
1005.76	0.0268571
1005.89	0.0280168
1006.03	0.0275285
1006.16	0.0273454
1006.29	0.0278948
1006.43	0.0272844
1006.56	0.0283831
1006.69	0.0269181
1006.83	0.0274065
1006.96	0.0282
1007.1	0.0278948
1007.23	0.0271623
1007.36	0.0278337
1007.5	0.0280779
1007.63	0.0283831
1007.77	0.0280779
1007.9	0.0280168
1008.03	0.0275896
1008.17	0.0278337
1008.3	0.0272844
1008.44	0.0275896
1008.57	0.0276506
1008.7	0.0280168
1008.84	0.0271623
1008.97	0.028261
1009.1	0.0278948
1009.24	0.0278337
1009.37	0.0274675
1009.51	0.0268571
1009.64	0.0267961
1009.77	0.0277727
1009.91	0.026674
1010.04	0.0274065
1010.18	0.0274065
1010.31	0.0273454
1010.44	0.0273454
1010.58	0.0277727
1010.71	0.0275285
1010.85	0.0278337
1010.98	0.0284441
1011.11	0.0272233
1011.25	0.0281389
1011.38	0.0274065
1011.51	0.0279558
1011.65	0.0277727
1011.78	0.026674
1011.92	0.0275896
1012.05	0.0273454
1012.18	0.0280779
1012.32	0.028261
1012.45	0.0274065
1012.59	0.0277117
1012.72	0.0272233
1012.85	0.0270402
1012.99	0.0276506
1013.12	0.0277117
1013.26	0.0270402
1013.39	0.0275285
1013.52	0.0279558
1013.66	0.0279558
1013.79	0.0268571
1013.92	0.0284441
1014.06	0.0276506
1014.19	0.0277727
1014.33	0.0276506
1014.46	0.0275896
1014.59	0.0265519
1014.73	0.0277727
1014.86	0.0277727
1015	0.0270402
1015.13	0.0278948
1015.26	0.0275285
1015.4	0.0274065
1015.53	0.0272844
1015.67	0.0285662
1015.8	0.0285662
1015.93	0.0284441
1016.07	0.0272233
1016.2	0.028322
1016.33	0.026674
1016.47	0.0277117
1016.6	0.0270402
1016.74	0.0281389
1016.87	0.0274065
1017	0.0275285
1017.14	0.0269792
1017.27	0.0278948
1017.41	0.028322
1017.54	0.0274065
1017.67	0.0275285
1017.81	0.0272233
1017.94	0.0281389
1018.07	0.0267961
1018.21	0.0280168
1018.34	0.0274675
1018.48	0.0271623
1018.61	0.0275285
1018.74	0.0269792
1018.88	0.0280779
1019.01	0.0274675
1019.15	0.0278337
1019.28	0.0285052
1019.41	0.0273454
1019.55	0.0275896
1019.68	0.0277727
1019.82	0.0277117
1019.95	0.0271623
1020.08	0.0282
1020.22	0.0278337
1020.35	0.0276506
1020.48	0.0280168
1020.62	0.0269792
1020.75	0.0280168
1020.89	0.0278337
1021.02	0.0272844
1021.15	0.0277727
1021.29	0.0280168
1021.42	0.0273454
1021.56	0.0274065
1021.69	0.0277117
1021.82	0.0277117
1021.96	0.0275896
1022.09	0.0280779
1022.22	0.0275896
1022.36	0.0277117
1022.49	0.0269181
1022.63	0.0272233
1022.76	0.0274675
1022.89	0.028322
1023.03	0.0271623
1023.16	0.0277727
1023.3	0.0277727
1023.43	0.0278337
1023.56	0.0275896
1023.7	0.0278948
1023.83	0.0281389
1023.96	0.0273454
1024.1	0.0275285
1024.23	0.0278948
1024.37	0.0278337
1024.5	0.0274065
1024.63	0.0278948
1024.77	0.0278337
1024.9	0.0283831
1025.04	0.0269792
1025.17	0.0268571
1025.3	0.0271013
1025.44	0.0272233
1025.57	0.0269181
1025.7	0.0278948
1025.84	0.0284441
1025.97	0.0272233
1026.11	0.028261
1026.24	0.0272844
1026.37	0.0275896
1026.51	0.0271623
1026.64	0.028322
1026.78	0.0274675
1026.91	0.0280779
1027.04	0.0273454
1027.18	0.0272844
1027.31	0.0278337
1027.44	0.0273454
1027.58	0.0277117
1027.71	0.0279558
1027.85	0.0278948
1027.98	0.0275285
1028.11	0.0278337
1028.25	0.0274065
1028.38	0.0274065
1028.52	0.0274675
1028.65	0.0264298
1028.78	0.0276506
1028.92	0.0277117
1029.05	0.0279558
1029.18	0.0279558
1029.32	0.026735
1029.45	0.0280168
1029.59	0.0271623
1029.72	0.0280168
1029.85	0.0272844
1029.99	0.0274065
1030.12	0.0280168
1030.26	0.0275896
1030.39	0.0272844
1030.52	0.0275285
1030.66	0.0269792
1030.79	0.0277727
1030.92	0.0272233
1031.06	0.0280168
1031.19	0.0271013
1031.33	0.0274675
1031.46	0.0273454
1031.59	0.0264298
1031.73	0.0268571
1031.86	0.0280779
1031.99	0.0273454
1032.13	0.0282
1032.26	0.0282
1032.4	0.0274065
1032.53	0.0284441
1032.66	0.028322
1032.8	0.0278948
1032.93	0.0268571
1033.07	0.0272233
1033.2	0.0279558
1033.33	0.0278948
1033.47	0.026735
1033.6	0.0274675
1033.73	0.0281389
1033.87	0.0275285
1034	0.0274675
1034.14	0.0280779
1034.27	0.0269792
1034.4	0.0267961
1034.54	0.0277117
1034.67	0.0274675
1034.81	0.0269792
1034.94	0.0274675
1035.07	0.0281389
1035.21	0.0275285
1035.34	0.0278337
1035.47	0.0286883
1035.61	0.0272844
1035.74	0.0278948
1035.88	0.0278948
1036.01	0.0278948
1036.14	0.0279558
1036.28	0.0273454
1036.41	0.0279558
1036.54	0.0280168
1036.68	0.0271623
1036.81	0.0273454
1036.95	0.0274675
1037.08	0.0269181
1037.21	0.0277117
1037.35	0.0280779
1037.48	0.0264909
1037.62	0.0269181
1037.75	0.0267961
1037.88	0.0281389
1038.02	0.026735
1038.15	0.0279558
1038.28	0.0276506
1038.42	0.0272844
1038.55	0.0275896
1038.69	0.0280779
1038.82	0.0276506
1038.95	0.0275896
1039.09	0.0275896
1039.22	0.0275285
1039.35	0.0267961
1039.49	0.0269792
1039.62	0.0282
1039.76	0.0287493
1039.89	0.0275896
1040.02	0.0274065
1040.16	0.0279558
1040.29	0.0275896
1040.43	0.0283831
1040.56	0.0274675
1040.69	0.0285052
1040.83	0.0280779
1040.96	0.0277727
1041.09	0.0276506
1041.23	0.0279558
1041.36	0.0277117
1041.5	0.0274675
1041.63	0.0275285
1041.76	0.0280779
1041.9	0.0277727
1042.03	0.0278337
1042.16	0.028322
1042.3	0.0272844
1042.43	0.0276506
1042.57	0.0272844
1042.7	0.0279558
1042.83	0.0275896
1042.97	0.0282
1043.1	0.0278337
1043.23	0.0278948
1043.37	0.0275285
1043.5	0.0275285
1043.64	0.0282
1043.77	0.0272233
1043.9	0.0274065
1044.04	0.0274675
1044.17	0.0272233
1044.31	0.0287493
1044.44	0.0282
1044.57	0.0268571
1044.71	0.0277727
1044.84	0.0277727
1044.97	0.0271013
1045.11	0.0277117
1045.24	0.0278337
1045.38	0.0272233
1045.51	0.0284441
1045.64	0.0274675
1045.78	0.0271623
1045.91	0.0274065
1046.04	0.0278337
1046.18	0.0283831
1046.31	0.0280168
1046.45	0.0271623
1046.58	0.0280168
1046.71	0.0271013
1046.85	0.0278337
1046.98	0.0277727
1047.11	0.0278337
1047.25	0.0271623
1047.38	0.0287493
1047.52	0.0274065
1047.65	0.0275285
1047.78	0.0277117
1047.92	0.026674
1048.05	0.0273454
1048.18	0.0269181
1048.32	0.0270402
1048.45	0.0272233
1048.59	0.0280168
1048.72	0.0280168
1048.85	0.0288714
1048.99	0.0275896
1049.12	0.0271623
1049.25	0.0277727
1049.39	0.0275285
1049.52	0.0271013
1049.66	0.0278948
1049.79	0.0285052
1049.92	0.0271013
1050.06	0.0275285
1050.19	0.0280779
1050.33	0.0282
1050.46	0.0271013
1050.59	0.0271623
1050.73	0.0280779
1050.86	0.0273454
1050.99	0.028322
1051.13	0.0287493
1051.26	0.0282
1051.4	0.0275896
1051.53	0.0267961
1051.66	0.0278337
1051.8	0.0275896
1051.93	0.0278337
1052.06	0.0280168
1052.2	0.0272844
1052.33	0.0274065
1052.47	0.0272844
1052.6	0.0275896
1052.73	0.0278948
1052.87	0.0271013
1053	0.0272233
1053.13	0.0279558
1053.27	0.0277117
1053.4	0.0272844
1053.54	0.026735
1053.67	0.0285052
1053.8	0.0277117
1053.94	0.0276506
1054.07	0.0277117
1054.2	0.028322
1054.34	0.026735
1054.47	0.0273454
1054.61	0.0274065
1054.74	0.028322
1054.87	0.0276506
1055.01	0.0278337
1055.14	0.0278337
1055.27	0.0269792
1055.41	0.026735
1055.54	0.0269181
1055.68	0.0270402
1055.81	0.0271623
1055.94	0.0283831
1056.08	0.0271013
1056.21	0.0267961
1056.34	0.0286272
1056.48	0.0269181
1056.61	0.0278948
1056.75	0.0277117
1056.88	0.0279558
1057.01	0.0277727
1057.15	0.026735
1057.28	0.0277117
1057.41	0.0277727
1057.55	0.0280779
1057.68	0.0272844
1057.82	0.0276506
1057.95	0.0275896
1058.08	0.0273454
1058.22	0.0278948
1058.35	0.0282
1058.48	0.0273454
1058.62	0.026613
1058.75	0.0281389
1058.89	0.0274065
1059.02	0.0276506
1059.15	0.0275896
1059.29	0.0277117
1059.42	0.0277117
1059.55	0.0279558
1059.69	0.028322
1059.82	0.0280168
1059.96	0.0272233
1060.09	0.0281389
1060.22	0.0272233
1060.36	0.0278337
1060.49	0.0271013
1060.62	0.028261
1060.76	0.0270402
1060.89	0.0277727
1061.03	0.0277727
1061.16	0.0278948
1061.29	0.0279558
1061.43	0.0278948
1061.56	0.0275285
1061.69	0.028261
1061.83	0.0281389
1061.96	0.0278337
1062.1	0.0273454
1062.23	0.0275285
1062.36	0.026613
1062.5	0.0277117
1062.63	0.0275896
1062.76	0.028322
1062.9	0.0275285
1063.03	0.0278948
1063.17	0.0275285
1063.3	0.0269181
1063.43	0.0275896
1063.57	0.0278948
1063.7	0.0284441
1063.83	0.0278948
1063.97	0.0274675
1064.1	0.0271623
1064.23	0.0277117
1064.37	0.0280168
1064.5	0.0276506
1064.64	0.0282
1064.77	0.0271623
1064.9	0.0271623
1065.04	0.0280779
1065.17	0.0278948
1065.3	0.0279558
1065.44	0.0276506
1065.57	0.0277727
1065.71	0.0274675
1065.84	0.0277727
1065.97	0.0272844
1066.11	0.028322
1066.24	0.0281389
1066.37	0.0275896
1066.51	0.0280168
1066.64	0.0275285
1066.78	0.0280779
1066.91	0.0276506
1067.04	0.0280779
1067.18	0.0285052
1067.31	0.0272844
1067.44	0.0279558
1067.58	0.0273454
1067.71	0.0281389
1067.85	0.0277117
1067.98	0.0279558
1068.11	0.0274675
1068.25	0.0273454
1068.38	0.0279558
1068.51	0.0273454
1068.65	0.0274065
1068.78	0.0277727
1068.92	0.0276506
1069.05	0.0283831
1069.18	0.0274065
1069.32	0.0272233
1069.45	0.028261
1069.58	0.0275896
1069.72	0.0282
1069.85	0.0277727
1069.98	0.0272844
1070.12	0.028261
1070.25	0.0278948
1070.39	0.0274675
1070.52	0.0268571
1070.65	0.0275896
1070.79	0.0279558
1070.92	0.0274675
1071.05	0.026735
1071.19	0.0271623
1071.32	0.0276506
1071.46	0.0276506
1071.59	0.0278337
1071.72	0.0275896
1071.86	0.0281389
1071.99	0.028261
1072.12	0.0277727
1072.26	0.0283831
1072.39	0.0280168
1072.53	0.0275896
1072.66	0.0269792
1072.79	0.0279558
1072.93	0.0277727
1073.06	0.0283831
1073.19	0.0276506
1073.33	0.0277727
1073.46	0.028261
1073.59	0.0273454
1073.73	0.028322
1073.86	0.0274065
1074	0.0276506
1074.13	0.0274675
1074.26	0.0278337
1074.4	0.0281389
1074.53	0.028322
1074.66	0.0274675
1074.8	0.0275896
1074.93	0.0275896
1075.07	0.0270402
1075.2	0.0277727
1075.33	0.0279558
1075.47	0.0274065
1075.6	0.0285662
1075.73	0.0272844
1075.87	0.0281389
1076	0.0268571
1076.14	0.0274065
1076.27	0.0283831
1076.4	0.0281389
1076.54	0.0283831
1076.67	0.0280168
1076.8	0.0274065
1076.94	0.028322
1077.07	0.0278337
1077.2	0.0274675
1077.34	0.0273454
1077.47	0.028261
1077.61	0.0281389
1077.74	0.0275285
1077.87	0.0284441
1078.01	0.0280779
1078.14	0.0272844
1078.27	0.0280779
1078.41	0.0277727
1078.54	0.0286272
1078.68	0.0268571
1078.81	0.0282
1078.94	0.0271013
1079.08	0.0273454
1079.21	0.0280168
1079.34	0.0271013
1079.48	0.0271623
1079.61	0.0280168
1079.74	0.0275285
1079.88	0.0283831
1080.01	0.0277117
1080.15	0.0277117
1080.28	0.0277117
1080.41	0.0279558
1080.55	0.0274675
1080.68	0.0280779
1080.81	0.0287493
1080.95	0.0280779
1081.08	0.0278337
1081.22	0.0272844
1081.35	0.0274065
1081.48	0.0278337
1081.62	0.0271623
1081.75	0.0274065
1081.88	0.0271623
1082.02	0.0272844
1082.15	0.0278337
1082.28	0.0279558
1082.42	0.0277117
1082.55	0.0278337
1082.69	0.0273454
1082.82	0.028261
1082.95	0.0272844
1083.09	0.0286272
1083.22	0.0278948
1083.35	0.0278337
1083.49	0.0270402
1083.62	0.0280168
1083.75	0.0274065
1083.89	0.0279558
1084.02	0.0286883
1084.16	0.0276506
1084.29	0.0265519
1084.42	0.0272844
1084.56	0.0277727
1084.69	0.0275285
1084.82	0.0275285
1084.96	0.0280779
1085.09	0.0275285
1085.23	0.0278948
1085.36	0.0271013
1085.49	0.0281389
1085.63	0.0273454
1085.76	0.0282
1085.89	0.0272844
1086.03	0.0274675
1086.16	0.0277117
1086.29	0.0275896
1086.43	0.0277117
1086.56	0.0272844
1086.7	0.0274675
1086.83	0.0272844
1086.96	0.0280779
1087.1	0.0286883
1087.23	0.0273454
1087.36	0.0274675
1087.5	0.0281389
1087.63	0.0274675
1087.76	0.0284441
1087.9	0.0269792
1088.03	0.0275285
1088.17	0.0274675
1088.3	0.0275285
1088.43	0.0273454
1088.57	0.0271623
1088.7	0.0269181
1088.83	0.0277727
1088.97	0.028261
1089.1	0.0274675
1089.24	0.0275285
1089.37	0.028261
1089.5	0.0274065
1089.64	0.0278337
1089.77	0.0271623
1089.9	0.0272844
1090.04	0.0278337
1090.17	0.0274065
1090.3	0.0284441
1090.44	0.0279558
1090.57	0.0277117
1090.71	0.028261
1090.84	0.0279558
1090.97	0.0274675
1091.11	0.0273454
1091.24	0.0274675
1091.37	0.0286883
1091.51	0.0269181
1091.64	0.0280779
1091.77	0.0274675
1091.91	0.0278948
1092.04	0.0283831
1092.18	0.0274675
1092.31	0.0280168
1092.44	0.0277117
1092.58	0.0283831
1092.71	0.0274065
1092.84	0.028261
1092.98	0.0268571
1093.11	0.0279558
1093.24	0.0280779
1093.38	0.0271623
1093.51	0.028261
1093.65	0.0277727
1093.78	0.0273454
1093.91	0.0273454
1094.05	0.0277727
1094.18	0.0272233
1094.31	0.026674
1094.45	0.0267961
1094.58	0.0272233
1094.71	0.0280168
1094.85	0.0282
1094.98	0.0274065
1095.12	0.0272844
1095.25	0.0275896
1095.38	0.028261
1095.52	0.0279558
1095.65	0.0277117
1095.78	0.0284441
1095.92	0.0282
1096.05	0.0275896
1096.18	0.0267961
1096.32	0.0275896
1096.45	0.0274065
1096.59	0.028261
1096.72	0.0267961
1096.85	0.0279558
1096.99	0.0275285
1097.12	0.0275896
1097.25	0.0275896
1097.39	0.026674
1097.52	0.0270402
1097.65	0.0275896
1097.79	0.0275285
1097.92	0.0271013
1098.06	0.0269181
1098.19	0.0281389
1098.32	0.0276506
1098.46	0.0277117
1098.59	0.0282
1098.72	0.0278948
1098.86	0.0269181
1098.99	0.0280168
1099.12	0.0284441
1099.26	0.0272233
1099.39	0.0271013
1099.53	0.0276506
1099.66	0.0280168
1099.79	0.028322
1099.93	0.0278337
1100.06	0.026735
1100.19	0.0265519
1100.33	0.0274675
1100.46	0.0275896
1100.59	0.0274065
1100.73	0.0281389
1100.86	0.0280168
1100.99	0.0282
1101.13	0.0276506
1101.26	0.026735
1101.4	0.0275896
1101.53	0.0275896
1101.66	0.0272233
1101.8	0.0274065
1101.93	0.0275896
1102.06	0.0280779
1102.2	0.0273454
1102.33	0.0262467
1102.46	0.0270402
1102.6	0.0277727
1102.73	0.0270402
1102.87	0.0280168
1103	0.0275285
1103.13	0.0271013
1103.27	0.0287493
1103.4	0.0272844
1103.53	0.0271013
1103.67	0.0278337
1103.8	0.0278337
1103.93	0.0264298
1104.07	0.026735
1104.2	0.0277727
1104.34	0.0274065
1104.47	0.0280168
1104.6	0.0277117
1104.74	0.0288714
1104.87	0.0271623
1105	0.0269181
1105.14	0.0277117
1105.27	0.0276506
1105.4	0.0280779
1105.54	0.0277117
1105.67	0.0279558
1105.8	0.0273454
1105.94	0.0271623
1106.07	0.0277727
1106.21	0.0278948
1106.34	0.0275285
1106.47	0.0281389
1106.61	0.0281389
1106.74	0.0271623
1106.87	0.0277117
1107.01	0.0277727
1107.14	0.0278948
1107.27	0.0274065
1107.41	0.0272233
1107.54	0.0282

