Source: Spectrum Viewer

Chart: Pulse Spectrum

Series: 
Wavelength (nm)	S (a.u.)
617.638	0.0310018
617.773	0.0307928
617.908	0.0316288
618.043	0.0318378
618.178	0.0320468
618.313	0.0303051
618.448	0.0308625
618.583	0.0305838
618.718	0.0311411
618.853	0.0316288
618.988	0.0312108
619.123	0.0305838
619.258	0.0311411
619.394	0.0316288
619.529	0.0312805
619.664	0.0316985
619.799	0.0314895
619.934	0.0311411
620.069	0.0314198
620.204	0.0320468
620.339	0.0323255
620.474	0.0305838
620.609	0.0326738
620.744	0.0319075
620.879	0.0305838
621.014	0.0316985
621.149	0.0301658
621.284	0.0316985
621.419	0.0316288
621.554	0.0305141
621.689	0.0313501
621.825	0.0309321
621.96	0.0323952
622.095	0.0310715
622.23	0.0312108
622.365	0.0310715
622.5	0.0312805
622.635	0.0312108
622.77	0.0319771
622.905	0.0312805
623.04	0.0311411
623.175	0.0308625
623.31	0.0319771
623.445	0.0315591
623.58	0.0312805
623.715	0.0321862
623.85	0.0314895
623.985	0.0314895
624.12	0.0316288
624.255	0.0305141
624.39	0.0318378
624.525	0.0307231
624.661	0.0311411
624.796	0.0311411
624.931	0.0312805
625.066	0.0318378
625.201	0.0310018
625.336	0.0306535
625.471	0.0310715
625.606	0.0313501
625.741	0.0317681
625.876	0.0307231
626.011	0.0309321
626.146	0.0308625
626.281	0.0314895
626.416	0.0316288
626.551	0.0314198
626.686	0.0303748
626.821	0.0313501
626.956	0.0315591
627.091	0.0307231
627.226	0.0315591
627.361	0.0312108
627.496	0.0310715
627.631	0.0304445
627.766	0.0315591
627.901	0.0298175
628.036	0.0309321
628.171	0.0313501
628.307	0.0307928
628.442	0.0306535
628.577	0.0310715
628.712	0.0314198
628.847	0.0316288
628.982	0.0321862
629.117	0.0305141
629.252	0.0307231
629.387	0.0312108
629.522	0.0316985
629.657	0.0304445
629.792	0.0319771
629.927	0.0311411
630.062	0.0326738
630.197	0.0308625
630.332	0.0316985
630.467	0.0305141
630.602	0.0312108
630.737	0.0310715
630.872	0.0310018
631.007	0.0302355
631.142	0.0311411
631.277	0.0303748
631.412	0.0310018
631.547	0.0320468
631.682	0.0293298
631.817	0.0310715
631.952	0.0309321
632.087	0.0312108
632.222	0.0316985
632.357	0.0308625
632.492	0.0316288
632.627	0.0310715
632.762	0.0307231
632.897	0.0316288
633.032	0.0310715
633.167	0.0300961
633.302	0.0305141
633.437	0.0312108
633.572	0.0308625
633.707	0.0308625
633.842	0.0305141
633.978	0.0309321
634.113	0.0306535
634.248	0.0312805
634.383	0.0315591
634.518	0.0314895
634.653	0.0314198
634.788	0.0310715
634.923	0.0314198
635.058	0.0312805
635.193	0.0316288
635.328	0.0305838
635.463	0.0312805
635.598	0.0312805
635.733	0.0319075
635.868	0.0308625
636.003	0.0310715
636.138	0.0312108
636.273	0.0318378
636.408	0.0304445
636.543	0.0307231
636.678	0.0310018
636.813	0.0315591
636.948	0.0309321
637.083	0.0305838
637.218	0.0311411
637.353	0.0318378
637.488	0.0320468
637.623	0.0315591
637.758	0.0316985
637.893	0.0306535
638.028	0.0305141
638.163	0.0318378
638.298	0.0305838
638.433	0.0303748
638.568	0.0307928
638.703	0.0326042
638.838	0.0303051
638.973	0.0319075
639.108	0.0310715
639.243	0.0309321
639.378	0.0304445
639.513	0.0314198
639.648	0.0314198
639.783	0.0305838
639.918	0.0308625
640.053	0.0305838
640.188	0.0303748
640.323	0.0316288
640.458	0.0308625
640.593	0.0298175
640.728	0.0318378
640.863	0.0303748
640.998	0.0307928
641.133	0.0321862
641.268	0.0312108
641.403	0.0319771
641.538	0.0310018
641.673	0.0311411
641.808	0.0316288
641.943	0.0313501
642.078	0.0313501
642.213	0.0322558
642.348	0.0312805
642.483	0.0313501
642.618	0.0307231
642.753	0.0306535
642.888	0.0307231
643.023	0.0301658
643.158	0.0314198
643.293	0.0310018
643.428	0.0311411
643.563	0.0304445
643.698	0.0308625
643.833	0.0310018
643.968	0.0303748
644.103	0.0312108
644.237	0.0313501
644.372	0.0313501
644.507	0.0316985
644.642	0.0306535
644.777	0.0302355
644.912	0.0308625
645.047	0.0310715
645.182	0.0316288
645.317	0.0312805
645.452	0.0306535
645.587	0.0307231
645.722	0.0314198
645.857	0.0307928
645.992	0.0303051
646.127	0.0316985
646.262	0.0319075
646.397	0.0303051
646.532	0.0312108
646.667	0.0307231
646.802	0.0317681
646.937	0.0305141
647.072	0.0301658
647.207	0.0317681
647.342	0.0316985
647.477	0.0312108
647.612	0.0315591
647.747	0.0310018
647.882	0.0316288
648.017	0.0313501
648.152	0.0324648
648.287	0.0311411
648.422	0.0304445
648.557	0.0305141
648.692	0.0312108
648.827	0.0319771
648.962	0.0306535
649.097	0.0310715
649.232	0.0312805
649.367	0.0302355
649.502	0.0317681
649.637	0.0319075
649.772	0.0306535
649.906	0.0313501
650.041	0.0298871
650.176	0.0311411
650.311	0.0312108
650.446	0.0306535
650.581	0.0308625
650.716	0.0316985
650.851	0.0314198
650.986	0.0303051
651.121	0.0320468
651.256	0.0308625
651.391	0.0310018
651.526	0.0313501
651.661	0.0311411
651.796	0.0310715
651.931	0.0307231
652.066	0.0303748
652.201	0.0304445
652.336	0.0306535
652.471	0.0307928
652.606	0.0307231
652.741	0.0303051
652.876	0.0318378
653.011	0.0319075
653.146	0.0305141
653.281	0.0312805
653.415	0.0307928
653.55	0.0320468
653.685	0.0307928
653.82	0.0310715
653.955	0.0307928
654.09	0.0310018
654.225	0.0303051
654.36	0.0310018
654.495	0.0314198
654.63	0.0314895
654.765	0.0299568
654.9	0.0312805
655.035	0.0318378
655.17	0.0307231
655.305	0.0310018
655.44	0.0312108
655.575	0.0312108
655.71	0.0314198
655.845	0.0311411
655.98	0.0308625
656.115	0.0309321
656.25	0.0312108
656.384	0.0314895
656.519	0.0319771
656.654	0.0305838
656.789	0.0311411
656.924	0.0303748
657.059	0.0315591
657.194	0.0310715
657.329	0.0310018
657.464	0.0308625
657.599	0.0317681
657.734	0.0315591
657.869	0.0321165
658.004	0.0311411
658.139	0.0311411
658.274	0.0297478
658.409	0.0308625
658.544	0.0314895
658.679	0.0307928
658.813	0.0316985
658.948	0.0303051
659.083	0.0300961
659.218	0.0308625
659.353	0.0316985
659.488	0.0310715
659.623	0.0307928
659.758	0.0305838
659.893	0.0307928
660.028	0.0312805
660.163	0.0306535
660.298	0.0306535
660.433	0.0310018
660.568	0.0316288
660.703	0.0308625
660.838	0.0305838
660.972	0.0311411
661.107	0.0310018
661.242	0.0314895
661.377	0.0314198
661.512	0.0308625
661.647	0.0300265
661.782	0.0315591
661.917	0.0304445
662.052	0.0325345
662.187	0.0312805
662.322	0.0316985
662.457	0.0312805
662.592	0.0316985
662.727	0.0312108
662.862	0.0307231
662.996	0.0310715
663.131	0.0315591
663.266	0.0311411
663.401	0.0317681
663.536	0.0308625
663.671	0.0303748
663.806	0.0314895
663.941	0.0316288
664.076	0.0307928
664.211	0.0309321
664.346	0.0320468
664.481	0.0312805
664.616	0.0323255
664.75	0.0317681
664.885	0.0315591
665.02	0.0312108
665.155	0.0312805
665.29	0.0317681
665.425	0.0318378
665.56	0.0303748
665.695	0.0305141
665.83	0.0310715
665.965	0.0310715
666.1	0.0307231
666.235	0.0309321
666.37	0.0307928
666.504	0.0305141
666.639	0.0307928
666.774	0.0316288
666.909	0.0307231
667.044	0.0311411
667.179	0.0310018
667.314	0.0309321
667.449	0.0308625
667.584	0.0315591
667.719	0.0312108
667.854	0.0307231
667.989	0.0306535
668.123	0.0306535
668.258	0.0314198
668.393	0.0306535
668.528	0.0313501
668.663	0.0310018
668.798	0.0314895
668.933	0.0318378
669.068	0.0310715
669.203	0.0303051
669.338	0.0304445
669.473	0.0310018
669.607	0.0314198
669.742	0.0300265
669.877	0.0310715
670.012	0.0316985
670.147	0.0316985
670.282	0.0305141
670.417	0.0314895
670.552	0.0314895
670.687	0.0310018
670.822	0.0320468
670.957	0.0318378
671.091	0.0312108
671.226	0.0312108
671.361	0.0300961
671.496	0.0305141
671.631	0.0310715
671.766	0.0304445
671.901	0.0317681
672.036	0.0307928
672.171	0.0310715
672.306	0.0310715
672.44	0.0316985
672.575	0.0315591
672.71	0.0310018
672.845	0.0315591
672.98	0.0312805
673.115	0.0311411
673.25	0.0312108
673.385	0.0319075
673.52	0.0315591
673.655	0.0303748
673.789	0.0310715
673.924	0.0319075
674.059	0.0319771
674.194	0.0306535
674.329	0.0313501
674.464	0.0315591
674.599	0.0316985
674.734	0.0312805
674.869	0.0311411
675.003	0.0305838
675.138	0.0316288
675.273	0.0307928
675.408	0.0319075
675.543	0.0310018
675.678	0.0307231
675.813	0.0316288
675.948	0.0318378
676.083	0.0314895
676.217	0.0323255
676.352	0.0310715
676.487	0.0305141
676.622	0.0307231
676.757	0.0312805
676.892	0.0316985
677.027	0.0313501
677.162	0.0312805
677.297	0.0324648
677.431	0.0318378
677.566	0.0308625
677.701	0.0306535
677.836	0.0305141
677.971	0.0311411
678.106	0.0313501
678.241	0.0308625
678.376	0.0307231
678.511	0.0313501
678.645	0.0308625
678.78	0.0314895
678.915	0.0316985
679.05	0.0313501
679.185	0.0306535
679.32	0.0308625
679.455	0.0310018
679.59	0.0311411
679.724	0.0322558
679.859	0.0307928
679.994	0.0317681
680.129	0.0308625
680.264	0.0305838
680.399	0.0308625
680.534	0.0305838
680.669	0.0319075
680.803	0.0305141
680.938	0.0310018
681.073	0.0316288
681.208	0.0310715
681.343	0.0312108
681.478	0.0303051
681.613	0.0313501
681.748	0.0305838
681.882	0.0326738
682.017	0.0310018
682.152	0.0312108
682.287	0.0315591
682.422	0.0320468
682.557	0.0310715
682.692	0.0310715
682.827	0.0305141
682.961	0.0316288
683.096	0.0307928
683.231	0.0311411
683.366	0.0309321
683.501	0.0310715
683.636	0.0300961
683.771	0.0310018
683.906	0.0299568
684.04	0.0314198
684.175	0.0320468
684.31	0.0307928
684.445	0.0305141
684.58	0.0311411
684.715	0.0313501
684.85	0.0313501
684.984	0.0309321
685.119	0.0312805
685.254	0.0308625
685.389	0.0312805
685.524	0.0318378
685.659	0.0307231
685.794	0.0305838
685.928	0.0321862
686.063	0.0303748
686.198	0.0312108
686.333	0.0310715
686.468	0.0316985
686.603	0.0314198
686.738	0.0312108
686.872	0.0307928
687.007	0.0322558
687.142	0.0312805
687.277	0.0314198
687.412	0.0307928
687.547	0.0306535
687.682	0.0311411
687.816	0.0313501
687.951	0.0310715
688.086	0.0319075
688.221	0.0314895
688.356	0.0304445
688.491	0.0307231
688.626	0.0311411
688.76	0.0310018
688.895	0.0314198
689.03	0.0319771
689.165	0.0311411
689.3	0.0319771
689.435	0.0315591
689.57	0.0303748
689.704	0.0314198
689.839	0.0310715
689.974	0.0315591
690.109	0.0306535
690.244	0.0305141
690.379	0.0307231
690.513	0.0316985
690.648	0.0305141
690.783	0.0314198
690.918	0.0321165
691.053	0.0304445
691.188	0.0310715
691.323	0.0311411
691.457	0.0310715
691.592	0.0313501
691.727	0.0307231
691.862	0.0306535
691.997	0.0310715
692.132	0.0311411
692.266	0.0305838
692.401	0.0321862
692.536	0.0302355
692.671	0.0311411
692.806	0.0311411
692.941	0.0319075
693.075	0.0305838
693.21	0.0312108
693.345	0.0312108
693.48	0.0315591
693.615	0.0316288
693.75	0.0306535
693.885	0.0307231
694.019	0.0310018
694.154	0.0321165
694.289	0.0308625
694.424	0.0307231
694.559	0.0301658
694.694	0.0325345
694.828	0.0310715
694.963	0.0307231
695.098	0.0315591
695.233	0.0307928
695.368	0.0315591
695.503	0.0316985
695.637	0.0308625
695.772	0.0310018
695.907	0.0314198
696.042	0.0308625
696.177	0.0316288
696.312	0.0315591
696.446	0.0300961
696.581	0.0308625
696.716	0.0319075
696.851	0.0304445
696.986	0.0309321
697.12	0.0321165
697.255	0.0305141
697.39	0.0305141
697.525	0.0317681
697.66	0.0316985
697.795	0.0312805
697.929	0.0316288
698.064	0.0307928
698.199	0.0299568
698.334	0.0303748
698.469	0.0312805
698.604	0.0308625
698.738	0.0307231
698.873	0.0305141
699.008	0.0317681
699.143	0.0302355
699.278	0.0313501
699.412	0.0305838
699.547	0.0312805
699.682	0.0314198
699.817	0.0311411
699.952	0.0307928
700.087	0.0312805
700.221	0.0315591
700.356	0.0307928
700.491	0.0312805
700.626	0.0315591
700.761	0.0324648
700.895	0.0310018
701.03	0.0317681
701.165	0.0308625
701.3	0.0310715
701.435	0.0308625
701.57	0.0309321
701.704	0.0314895
701.839	0.0319075
701.974	0.0307231
702.109	0.0300265
702.244	0.0314198
702.378	0.0313501
702.513	0.0306535
702.648	0.0314198
702.783	0.0308625
702.918	0.0310715
703.052	0.0310715
703.187	0.0316985
703.322	0.0308625
703.457	0.0321862
703.592	0.0314895
703.727	0.0310018
703.861	0.0314895
703.996	0.0316288
704.131	0.0308625
704.266	0.0309321
704.401	0.0316288
704.535	0.0319771
704.67	0.0324648
704.805	0.0314198
704.94	0.0319075
705.075	0.0311411
705.209	0.0313501
705.344	0.0309321
705.479	0.0309321
705.614	0.0308625
705.749	0.0305141
705.883	0.0311411
706.018	0.0325345
706.153	0.0313501
706.288	0.0307928
706.423	0.0320468
706.557	0.0311411
706.692	0.0314895
706.827	0.0319771
706.962	0.0315591
707.097	0.0317681
707.231	0.0305141
707.366	0.0305141
707.501	0.0310018
707.636	0.0307928
707.771	0.0309321
707.905	0.0308625
708.04	0.0317681
708.175	0.0315591
708.31	0.0317681
708.445	0.0304445
708.579	0.0319075
708.714	0.0313501
708.849	0.0312108
708.984	0.0303748
709.118	0.0318378
709.253	0.0316288
709.388	0.0321165
709.523	0.0315591
709.658	0.0313501
709.792	0.0304445
709.927	0.0312805
710.062	0.0311411
710.197	0.0310715
710.332	0.0313501
710.466	0.0314198
710.601	0.0314895
710.736	0.0319075
710.871	0.0310715
711.006	0.0314895
711.14	0.0300961
711.275	0.0313501
711.41	0.0313501
711.545	0.0310018
711.679	0.0308625
711.814	0.0312805
711.949	0.0314895
712.084	0.0311411
712.219	0.0312805
712.353	0.0321862
712.488	0.0300265
712.623	0.0312108
712.758	0.0307231
712.892	0.0310018
713.027	0.0311411
713.162	0.0314198
713.297	0.0307231
713.432	0.0311411
713.566	0.0311411
713.701	0.0295388
713.836	0.0310715
713.971	0.0311411
714.105	0.0313501
714.24	0.0308625
714.375	0.0310018
714.51	0.0320468
714.645	0.0307231
714.779	0.0313501
714.914	0.0312108
715.049	0.0308625
715.184	0.0313501
715.318	0.0308625
715.453	0.0303051
715.588	0.0303748
715.723	0.0312805
715.858	0.0306535
715.992	0.0314198
716.127	0.0306535
716.262	0.0305141
716.397	0.0316288
716.531	0.0305838
716.666	0.0320468
716.801	0.0305838
716.936	0.0300265
717.07	0.0312805
717.205	0.0308625
717.34	0.0307231
717.475	0.0307928
717.61	0.0310715
717.744	0.0316985
717.879	0.0324648
718.014	0.0314198
718.149	0.0307231
718.283	0.0321165
718.418	0.0316288
718.553	0.0312108
718.688	0.0312805
718.822	0.0307231
718.957	0.0311411
719.092	0.0312108
719.227	0.0320468
719.361	0.0309321
719.496	0.0312108
719.631	0.0313501
719.766	0.0315591
719.9	0.0307231
720.035	0.0313501
720.17	0.0305838
720.305	0.0311411
720.44	0.0303051
720.574	0.0309321
720.709	0.0311411
720.844	0.0310018
720.979	0.0315591
721.113	0.0315591
721.248	0.0308625
721.383	0.0313501
721.518	0.0308625
721.652	0.0320468
721.787	0.0310018
721.922	0.0307928
722.057	0.0316985
722.191	0.0316985
722.326	0.0311411
722.461	0.0309321
722.596	0.0307231
722.73	0.0310018
722.865	0.0310715
723	0.0307928
723.135	0.0314198
723.269	0.0312805
723.404	0.0303051
723.539	0.0308625
723.674	0.0302355
723.808	0.0312805
723.943	0.0314198
724.078	0.0310715
724.213	0.0312108
724.347	0.0305838
724.482	0.0307928
724.617	0.0317681
724.752	0.0315591
724.886	0.0314198
725.021	0.0309321
725.156	0.0312805
725.291	0.0311411
725.425	0.0314895
725.56	0.0305838
725.695	0.0326042
725.829	0.0313501
725.964	0.0311411
726.099	0.0320468
726.234	0.0305141
726.368	0.0305141
726.503	0.0323952
726.638	0.0317681
726.773	0.0307928
726.907	0.0310715
727.042	0.0314895
727.177	0.0304445
727.312	0.0314198
727.446	0.0314198
727.581	0.0311411
727.716	0.0312108
727.851	0.0307231
727.985	0.0318378
728.12	0.0310018
728.255	0.0318378
728.389	0.0300961
728.524	0.0311411
728.659	0.0319771
728.794	0.0307231
728.928	0.0310715
729.063	0.0316288
729.198	0.0305838
729.333	0.0314198
729.467	0.0313501
729.602	0.0316288
729.737	0.0312805
729.872	0.0307231
730.006	0.0313501
730.141	0.0310018
730.276	0.0310018
730.41	0.0309321
730.545	0.0316288
730.68	0.0313501
730.815	0.0310715
730.949	0.0304445
731.084	0.0309321
731.219	0.0319075
731.354	0.0311411
731.488	0.0314198
731.623	0.0316288
731.758	0.0308625
731.892	0.0305838
732.027	0.0304445
732.162	0.0314895
732.297	0.0312805
732.431	0.0318378
732.566	0.0314198
732.701	0.0318378
732.835	0.0314895
732.97	0.0315591
733.105	0.0314198
733.24	0.0316985
733.374	0.0314198
733.509	0.0308625
733.644	0.0310018
733.779	0.0306535
733.913	0.0300961
734.048	0.0311411
734.183	0.0318378
734.317	0.0321165
734.452	0.0301658
734.587	0.0319075
734.722	0.0317681
734.856	0.0321165
734.991	0.0306535
735.126	0.0310715
735.26	0.0306535
735.395	0.0310018
735.53	0.0313501
735.665	0.0316985
735.799	0.0312108
735.934	0.0310018
736.069	0.0314895
736.203	0.0309321
736.338	0.0310715
736.473	0.0316288
736.607	0.0305838
736.742	0.0305838
736.877	0.0315591
737.012	0.0308625
737.146	0.0322558
737.281	0.0310018
737.416	0.0303748
737.55	0.0315591
737.685	0.0303051
737.82	0.0300265
737.955	0.0311411
738.089	0.0321862
738.224	0.0313501
738.359	0.0314198
738.493	0.0309321
738.628	0.0310715
738.763	0.0326738
738.897	0.0309321
739.032	0.0314895
739.167	0.0311411
739.302	0.0314198
739.436	0.0319075
739.571	0.0307928
739.706	0.0316288
739.84	0.0310018
739.975	0.0314895
740.11	0.0316985
740.244	0.0308625
740.379	0.0314198
740.514	0.0310715
740.649	0.0317681
740.783	0.0314895
740.918	0.0310018
741.053	0.0310715
741.187	0.0323255
741.322	0.0310715
741.457	0.0316985
741.591	0.0301658
741.726	0.0310715
741.861	0.0309321
741.996	0.0316288
742.13	0.0320468
742.265	0.0312805
742.4	0.0312805
742.534	0.0305838
742.669	0.0306535
742.804	0.0310715
742.938	0.0303051
743.073	0.0313501
743.208	0.0307928
743.342	0.0322558
743.477	0.0318378
743.612	0.0314895
743.747	0.0314198
743.881	0.0318378
744.016	0.0310018
744.151	0.0313501
744.285	0.0313501
744.42	0.0316985
744.555	0.0305141
744.689	0.0319075
744.824	0.0305838
744.959	0.0313501
745.093	0.0308625
745.228	0.0312805
745.363	0.0308625
745.497	0.0313501
745.632	0.0296085
745.767	0.0310018
745.901	0.0309321
746.036	0.0316985
746.171	0.0315591
746.305	0.0310715
746.44	0.0308625
746.575	0.0313501
746.71	0.0317681
746.844	0.0296085
746.979	0.0304445
747.114	0.0307928
747.248	0.0307231
747.383	0.0312805
747.518	0.0307928
747.652	0.0312108
747.787	0.0312805
747.922	0.0319771
748.056	0.0314198
748.191	0.0315591
748.326	0.0306535
748.46	0.0305141
748.595	0.0313501
748.73	0.0294691
748.864	0.0307231
748.999	0.0319075
749.134	0.0312108
749.268	0.0298871
749.403	0.0312108
749.538	0.0305838
749.672	0.0318378
749.807	0.0314198
749.942	0.0307928
750.076	0.0315591
750.211	0.0309321
750.346	0.0310018
750.48	0.0316288
750.615	0.0311411
750.75	0.0314198
750.884	0.0316288
751.019	0.0297478
751.154	0.0314198
751.288	0.0305141
751.423	0.0310715
751.558	0.0307231
751.692	0.0310018
751.827	0.0309321
751.962	0.0315591
752.096	0.0305838
752.231	0.0314895
752.366	0.0312805
752.5	0.0319771
752.635	0.0316288
752.77	0.0311411
752.904	0.0314198
753.039	0.0310715
753.174	0.0309321
753.308	0.0307928
753.443	0.0310018
753.578	0.0310018
753.712	0.0312805
753.847	0.0309321
753.982	0.0318378
754.116	0.0304445
754.251	0.0326738
754.386	0.0308625
754.52	0.0303051
754.655	0.0305141
754.79	0.0304445
754.924	0.0319075
755.059	0.0307231
755.194	0.0314895
755.328	0.0305141
755.463	0.0316288
755.597	0.0316985
755.732	0.0312805
755.867	0.0304445
756.001	0.0314895
756.136	0.0305838
756.271	0.0309321
756.405	0.0308625
756.54	0.0310018
756.675	0.0316985
756.809	0.0308625
756.944	0.0313501
757.079	0.0315591
757.213	0.0316288
757.348	0.0319771
757.483	0.0312805
757.617	0.0310715
757.752	0.0312108
757.887	0.0316288
758.021	0.0314198
758.156	0.0324648
758.29	0.0300961
758.425	0.0316288
758.56	0.0313501
758.694	0.0319771
758.829	0.0316288
758.964	0.0316288
759.098	0.0314895
759.233	0.0307231
759.368	0.0310715
759.502	0.0320468
759.637	0.0313501
759.772	0.0310018
759.906	0.0315591
760.041	0.0310715
760.175	0.0306535
760.31	0.0306535
760.445	0.0303748
760.579	0.0321862
760.714	0.0307928
760.849	0.0316288
760.983	0.0312805
761.118	0.0320468
761.253	0.0306535
761.387	0.0317681
761.522	0.0305141
761.656	0.0307928
761.791	0.0309321
761.926	0.0317681
762.06	0.0306535
762.195	0.0301658
762.33	0.0312805
762.464	0.0309321
762.599	0.0307928
762.733	0.0305141
762.868	0.0318378
763.003	0.0314198
763.137	0.0310018
763.272	0.0312108
763.407	0.0310715
763.541	0.0305838
763.676	0.0320468
763.811	0.0310715
763.945	0.0316985
764.08	0.0316288
764.214	0.0307231
764.349	0.0305838
764.484	0.0307231
764.618	0.0308625
764.753	0.0305838
764.888	0.0310018
765.022	0.0300961
765.157	0.0319075
765.291	0.0306535
765.426	0.0304445
765.561	0.0308625
765.695	0.0294691
765.83	0.0307928
765.965	0.0321165
766.099	0.0315591
766.234	0.0314198
766.368	0.0306535
766.503	0.0312108
766.638	0.0308625
766.772	0.0312805
766.907	0.0310715
767.041	0.0319771
767.176	0.0313501
767.311	0.0312805
767.445	0.0308625
767.58	0.0322558
767.715	0.0312108
767.849	0.0319075
767.984	0.0311411
768.118	0.0312805
768.253	0.0314198
768.388	0.0319075
768.522	0.0305838
768.657	0.0314895
768.791	0.0312805
768.926	0.0314895
769.061	0.0303051
769.195	0.0314895
769.33	0.0314198
769.465	0.0312108
769.599	0.0310715
769.734	0.0321862
769.868	0.0316288
770.003	0.0306535
770.138	0.0297478
770.272	0.0310715
770.407	0.0298871
770.541	0.0317681
770.676	0.0310018
770.811	0.0306535
770.945	0.0308625
771.08	0.0307231
771.214	0.0312108
771.349	0.0305141
771.484	0.0310018
771.618	0.0321862
771.753	0.0318378
771.887	0.0314198
772.022	0.0310018
772.157	0.0303748
772.291	0.0310715
772.426	0.0318378
772.56	0.0314198
772.695	0.0316985
772.83	0.0313501
772.964	0.0311411
773.099	0.0319075
773.233	0.0314895
773.368	0.0320468
773.503	0.0304445
773.637	0.0316985
773.772	0.0312805
773.906	0.0311411
774.041	0.0316288
774.176	0.0311411
774.31	0.0328132
774.445	0.0309321
774.579	0.0312108
774.714	0.0305838
774.849	0.0313501
774.983	0.0312805
775.118	0.0314198
775.252	0.0310018
775.387	0.0318378
775.522	0.0306535
775.656	0.0308625
775.791	0.0316288
775.925	0.0310018
776.06	0.0313501
776.195	0.0303748
776.329	0.0314198
776.464	0.0314198
776.598	0.0310715
776.733	0.0321165
776.868	0.0319771
777.002	0.0316985
777.137	0.0312108
777.271	0.0310715
777.406	0.0315591
777.54	0.0316288
777.675	0.0308625
777.81	0.0303051
777.944	0.0303748
778.079	0.0312805
778.213	0.0308625
778.348	0.0314895
778.483	0.0310715
778.617	0.0307231
778.752	0.0315591
778.886	0.0300265
779.021	0.0307928
779.155	0.0311411
779.29	0.0312805
779.425	0.0317681
779.559	0.0312805
779.694	0.0305838
779.828	0.0305838
779.963	0.0305838
780.098	0.0318378
780.232	0.0313501
780.367	0.0307928
780.501	0.0306535
780.636	0.0313501
780.77	0.0315591
780.905	0.0307231
781.04	0.0305141
781.174	0.0310018
781.309	0.0315591
781.443	0.0317681
781.578	0.0310715
781.712	0.0320468
781.847	0.0310018
781.982	0.0317681
782.116	0.0323952
782.251	0.0303748
782.385	0.0326738
782.52	0.0312108
782.654	0.0310715
782.789	0.0307928
782.924	0.0315591
783.058	0.0317681
783.193	0.0302355
783.327	0.0309321
783.462	0.0314895
783.596	0.0312108
783.731	0.0316985
783.866	0.0317681
784	0.0318378
784.135	0.0310715
784.269	0.0319075
784.404	0.0316288
784.538	0.0310715
784.673	0.0316985
784.808	0.0322558
784.942	0.0321862
785.077	0.0310018
785.211	0.0305838
785.346	0.0310018
785.48	0.0303051
785.615	0.0314198
785.75	0.0312805
785.884	0.0310018
786.019	0.0312805
786.153	0.0304445
786.288	0.0305838
786.422	0.0305838
786.557	0.0309321
786.691	0.0316985
786.826	0.0304445
786.961	0.0317681
787.095	0.0312108
787.23	0.0310018
787.364	0.0309321
787.499	0.0312805
787.633	0.0300961
787.768	0.0310018
787.902	0.0309321
788.037	0.0307928
788.172	0.0318378
788.306	0.0311411
788.441	0.0308625
788.575	0.0317681
788.71	0.0312108
788.844	0.0307928
788.979	0.0317681
789.113	0.0310018
789.248	0.0314895
789.383	0.0316985
789.517	0.0323255
789.652	0.0309321
789.786	0.0310715
789.921	0.0305141
790.055	0.0311411
790.19	0.0309321
790.324	0.0304445
790.459	0.0319075
790.594	0.0305838
790.728	0.0308625
790.863	0.0305838
790.997	0.0307928
791.132	0.0303051
791.266	0.0316985
791.401	0.0310715
791.535	0.0300265
791.67	0.0314198
791.804	0.0310018
791.939	0.0303051
792.074	0.0321862
792.208	0.0312108
792.343	0.0315591
792.477	0.0310715
792.612	0.0316288
792.746	0.0309321
792.881	0.0306535
793.015	0.0309321
793.15	0.0316985
793.284	0.0312805
793.419	0.0311411
793.553	0.0312805
793.688	0.0311411
793.823	0.0315591
793.957	0.0314198
794.092	0.0309321
794.226	0.0316985
794.361	0.0303051
794.495	0.0310715
794.63	0.0319075
794.764	0.0309321
794.899	0.0316985
795.033	0.0321862
795.168	0.0315591
795.302	0.0314895
795.437	0.0312108
795.572	0.0315591
795.706	0.0308625
795.841	0.0311411
795.975	0.0316288
796.11	0.0326042
796.244	0.0307231
796.379	0.0319771
796.513	0.0307928
796.648	0.0311411
796.782	0.0320468
796.917	0.0319771
797.051	0.0312805
797.186	0.0320468
797.32	0.0312108
797.455	0.0319075
797.589	0.0316288
797.724	0.0321862
797.859	0.0306535
797.993	0.0306535
798.128	0.0311411
798.262	0.0311411
798.397	0.0318378
798.531	0.0314198
798.666	0.0314198
798.8	0.0312108
798.935	0.0319075
799.069	0.0314895
799.204	0.0308625
799.338	0.0314198
799.473	0.0310018
799.607	0.0324648
799.742	0.0321862
799.876	0.0312805
800.011	0.0314198
800.145	0.0323952
800.28	0.0310715
800.414	0.0326042
800.549	0.0321862
800.683	0.0316288
800.818	0.0315591
800.953	0.0319771
801.087	0.0325345
801.222	0.0315591
801.356	0.0307928
801.491	0.0320468
801.625	0.0321165
801.76	0.0321862
801.894	0.0330918
802.029	0.0312108
802.163	0.0328828
802.298	0.0324648
802.432	0.0319075
802.567	0.0324648
802.701	0.0327435
802.836	0.0322558
802.97	0.0326738
803.105	0.0328132
803.239	0.0320468
803.374	0.0326738
803.508	0.0319771
803.643	0.0326042
803.777	0.0322558
803.912	0.0331615
804.046	0.0326738
804.181	0.0337885
804.315	0.0322558
804.45	0.0334402
804.584	0.0328132
804.719	0.0344852
804.853	0.0356695
804.988	0.0332312
805.122	0.0342762
805.257	0.0352515
805.391	0.0348335
805.526	0.0358088
805.66	0.0355998
805.795	0.0353908
805.929	0.0361572
806.064	0.0366448
806.198	0.0368538
806.333	0.0382472
806.467	0.0394315
806.602	0.0396405
806.736	0.0408249
806.871	0.0421485
807.005	0.0433329
807.14	0.0451442
807.274	0.0463982
807.409	0.0521806
807.543	0.0680647
807.678	0.107218
807.812	0.163369
807.947	0.29915
808.081	0.542497
808.216	0.730249
808.35	0.603177
808.485	0.524871
808.619	0.558033
808.754	0.871882
808.888	1
809.023	0.865055
809.157	0.817054
809.292	0.77818
809.426	0.638428
809.561	0.776996
809.695	0.816079
809.83	0.278529
809.964	0.0682737
810.099	0.0447959
810.233	0.0418699
810.368	0.0407552
810.502	0.0388045
810.637	0.0378292
810.771	0.0370628
810.906	0.0344852
811.04	0.0359482
811.175	0.0353212
811.309	0.0339975
811.444	0.0349032
811.578	0.0337188
811.713	0.0337188
811.847	0.0339278
811.982	0.0338582
812.116	0.0330918
812.251	0.0339975
812.385	0.0340672
812.519	0.0342065
812.654	0.0328132
812.788	0.0335795
812.923	0.0337188
813.057	0.0328828
813.192	0.0328828
813.326	0.0326042
813.461	0.0319771
813.595	0.0313501
813.73	0.0316288
813.864	0.0314895
813.999	0.0321165
814.133	0.0316985
814.268	0.0312805
814.402	0.0319075
814.537	0.0326738
814.671	0.0331615
814.806	0.0323952
814.94	0.0320468
815.075	0.0316288
815.209	0.0312805
815.344	0.0322558
815.478	0.0326042
815.612	0.0318378
815.747	0.0326738
815.881	0.0326738
816.016	0.0316985
816.15	0.0312108
816.285	0.0315591
816.419	0.0321165
816.554	0.0312108
816.688	0.0314895
816.823	0.0326042
816.957	0.0310018
817.092	0.0321165
817.226	0.0310715
817.361	0.0328132
817.495	0.0313501
817.63	0.0315591
817.764	0.0317681
817.898	0.0313501
818.033	0.0319075
818.167	0.0307231
818.302	0.0319771
818.436	0.0321165
818.571	0.0323255
818.705	0.0316288
818.84	0.0310018
818.974	0.0316288
819.109	0.0312805
819.243	0.0321862
819.378	0.0297478
819.512	0.0320468
819.646	0.0315591
819.781	0.0311411
819.915	0.0312108
820.05	0.0317681
820.184	0.0312108
820.319	0.0316985
820.453	0.0308625
820.588	0.0314895
820.722	0.0324648
820.857	0.0304445
820.991	0.0317681
821.126	0.0319075
821.26	0.0316985
821.394	0.0320468
821.529	0.0303748
821.663	0.0302355
821.798	0.0314895
821.932	0.0306535
822.067	0.0316985
822.201	0.0315591
822.336	0.0319771
822.47	0.0306535
822.605	0.0311411
822.739	0.0309321
822.873	0.0307231
823.008	0.0310715
823.142	0.0316288
823.277	0.0311411
823.411	0.0314198
823.546	0.0316985
823.68	0.0312108
823.815	0.0317681
823.949	0.0314895
824.083	0.0304445
824.218	0.0312108
824.352	0.0310018
824.487	0.0313501
824.621	0.0313501
824.756	0.0305141
824.89	0.0311411
825.025	0.0316985
825.159	0.0317681
825.293	0.0308625
825.428	0.0314895
825.562	0.0308625
825.697	0.0306535
825.831	0.0319771
825.966	0.0303051
826.1	0.0313501
826.235	0.0315591
826.369	0.0308625
826.503	0.0314895
826.638	0.0313501
826.772	0.0312805
826.907	0.0304445
827.041	0.0314198
827.176	0.0312108
827.31	0.0312108
827.445	0.0319075
827.579	0.0310018
827.713	0.0309321
827.848	0.0314895
827.982	0.0319075
828.117	0.0310715
828.251	0.0314895
828.386	0.0314198
828.52	0.0314198
828.654	0.0305838
828.789	0.0317681
828.923	0.0308625
829.058	0.0311411
829.192	0.0313501
829.327	0.0311411
829.461	0.0314895
829.596	0.0308625
829.73	0.0305141
829.864	0.0314198
829.999	0.0313501
830.133	0.0311411
830.268	0.0311411
830.402	0.0316288
830.537	0.0313501
830.671	0.0305141
830.805	0.0306535
830.94	0.0305141
831.074	0.0318378
831.209	0.0312108
831.343	0.0316985
831.478	0.0312805
831.612	0.0301658
831.746	0.0305141
831.881	0.0314895
832.015	0.0314198
832.15	0.0309321
832.284	0.0324648
832.418	0.0306535
832.553	0.0308625
832.687	0.0315591
832.822	0.0319075
832.956	0.0314198
833.091	0.0320468
833.225	0.0316985
833.359	0.0312108
833.494	0.0315591
833.628	0.0312108
833.763	0.0305141
833.897	0.0319075
834.032	0.0305838
834.166	0.0312805
834.3	0.0310018
834.435	0.0312108
834.569	0.0307928
834.704	0.0307231
834.838	0.0300265
834.972	0.0310018
835.107	0.0312805
835.241	0.0307928
835.376	0.0316985
835.51	0.0307928
835.645	0.0323255
835.779	0.0307928
835.913	0.0312805
836.048	0.0315591
836.182	0.0316985
836.317	0.0305838
836.451	0.0309321
836.585	0.0316985
836.72	0.0310715
836.854	0.0319075
836.989	0.0304445
837.123	0.0306535
837.257	0.0308625
837.392	0.0312108
837.526	0.0312108
837.661	0.0312108
837.795	0.0330222
837.929	0.0312108
838.064	0.0311411
838.198	0.0308625
838.333	0.0313501
838.467	0.0305141
838.602	0.0306535
838.736	0.0310018
838.87	0.0310715
839.005	0.0329525
839.139	0.0310715
839.274	0.0318378
839.408	0.0310018
839.542	0.0303748
839.677	0.0310715
839.811	0.0317681
839.946	0.0313501
840.08	0.0313501
840.214	0.0307231
840.349	0.0299568
840.483	0.0307928
840.618	0.0293995
840.752	0.0311411
840.886	0.0306535
841.021	0.0319075
841.155	0.0318378
841.29	0.0318378
841.424	0.0319075
841.558	0.0306535
841.693	0.0304445
841.827	0.0312805
841.961	0.0320468
842.096	0.0312805
842.23	0.0315591
842.365	0.0316985
842.499	0.0310715
842.633	0.0318378
842.768	0.0305838
842.902	0.0312805
843.037	0.0310715
843.171	0.0296781
843.305	0.0319771
843.44	0.0304445
843.574	0.0314895
843.709	0.0323952
843.843	0.0305838
843.977	0.0310715
844.112	0.0309321
844.246	0.0310715
844.381	0.0305838
844.515	0.0312805
844.649	0.0302355
844.784	0.0309321
844.918	0.0313501
845.052	0.0307231
845.187	0.0310715
845.321	0.0310715
845.456	0.0311411
845.59	0.0312108
845.724	0.0312805
845.859	0.0311411
845.993	0.0314895
846.128	0.0307231
846.262	0.0311411
846.396	0.0313501
846.531	0.0312805
846.665	0.0316985
846.799	0.0305141
846.934	0.0312805
847.068	0.0306535
847.203	0.0304445
847.337	0.0310018
847.471	0.0316985
847.606	0.0316288
847.74	0.0318378
847.874	0.0303051
848.009	0.0319771
848.143	0.0311411
848.278	0.0320468
848.412	0.0316288
848.546	0.0314895
848.681	0.0306535
848.815	0.0310018
848.949	0.0317681
849.084	0.0305838
849.218	0.0310715
849.353	0.0314198
849.487	0.0312805
849.621	0.0307928
849.756	0.0305838
849.89	0.0319075
850.024	0.0317681
850.159	0.0310715
850.293	0.0307928
850.428	0.0308625
850.562	0.0304445
850.696	0.0305141
850.831	0.0310715
850.965	0.0308625
851.099	0.0308625
851.234	0.0320468
851.368	0.0307231
851.502	0.0313501
851.637	0.0307231
851.771	0.0305141
851.906	0.0316985
852.04	0.0319771
852.174	0.0309321
852.309	0.0313501
852.443	0.0315591
852.577	0.0314198
852.712	0.0305838
852.846	0.0310018
852.98	0.0307231
853.115	0.0323255
853.249	0.0310018
853.384	0.0310018
853.518	0.0317681
853.652	0.0318378
853.787	0.0312805
853.921	0.0320468
854.055	0.0313501
854.19	0.0311411
854.324	0.0322558
854.458	0.0316288
854.593	0.0316985
854.727	0.0314198
854.861	0.0316288
854.996	0.0305141
855.13	0.0308625
855.265	0.0312805
855.399	0.0318378
855.533	0.0315591
855.668	0.0305141
855.802	0.0323255
855.936	0.0311411
856.071	0.0314198
856.205	0.0305141
856.339	0.0314895
856.474	0.0300961
856.608	0.0303051
856.742	0.0320468
856.877	0.0317681
857.011	0.0312805
857.145	0.0306535
857.28	0.0312108
857.414	0.0309321
857.549	0.0312805
857.683	0.0312805
857.817	0.0301658
857.952	0.0303748
858.086	0.0316288
858.22	0.0307928
858.355	0.0312805
858.489	0.0314198
858.623	0.0298871
858.758	0.0305141
858.892	0.0303748
859.026	0.0309321
859.161	0.0313501
859.295	0.0300265
859.429	0.0310715
859.564	0.0307231
859.698	0.0306535
859.832	0.0312805
859.967	0.0308625
860.101	0.0303051
860.235	0.0297478
860.37	0.0307231
860.504	0.0314198
860.638	0.0306535
860.773	0.0310715
860.907	0.0321165
861.041	0.0311411
861.176	0.0303051
861.31	0.0318378
861.444	0.0315591
861.579	0.0310715
861.713	0.0311411
861.847	0.0312108
861.982	0.0305141
862.116	0.0307928
862.25	0.0314895
862.385	0.0322558
862.519	0.0307928
862.653	0.0302355
862.788	0.0305141
862.922	0.0308625
863.056	0.0313501
863.191	0.0312805
863.325	0.0305141
863.459	0.0318378
863.594	0.0312805
863.728	0.0313501
863.862	0.0313501
863.997	0.0316288
864.131	0.0305141
864.265	0.0316985
864.4	0.0310018
864.534	0.0299568
864.668	0.0317681
864.803	0.0309321
864.937	0.0314895
865.071	0.0307231
865.206	0.0321165
865.34	0.0314198
865.474	0.0310018
865.609	0.0305838
865.743	0.0315591
865.877	0.0303051
866.012	0.0310715
866.146	0.0306535
866.28	0.0315591
866.415	0.0305838
866.549	0.0307928
866.683	0.0305838
866.818	0.0314198
866.952	0.0299568
867.086	0.0318378
867.221	0.0303748
867.355	0.0305141
867.489	0.0315591
867.623	0.0310715
867.758	0.0305141
867.892	0.0309321
868.026	0.0310018
868.161	0.0314198
868.295	0.0308625
868.429	0.0316288
868.564	0.0307231
868.698	0.0311411
868.832	0.0309321
868.967	0.0319771
869.101	0.0308625
869.235	0.0319771
869.37	0.0309321
869.504	0.0305141
869.638	0.0313501
869.773	0.0301658
869.907	0.0311411
870.041	0.0305838
870.175	0.0305838
870.31	0.0311411
870.444	0.0308625
870.578	0.0305141
870.713	0.0312805
870.847	0.0316985
870.981	0.0308625
871.116	0.0300961
871.25	0.0301658
871.384	0.0314895
871.519	0.0305141
871.653	0.0316288
871.787	0.0305141
871.921	0.0312108
872.056	0.0301658
872.19	0.0318378
872.324	0.0310018
872.459	0.0317681
872.593	0.0311411
872.727	0.0321862
872.862	0.0316985
872.996	0.0314198
873.13	0.0321862
873.264	0.0309321
873.399	0.0310018
873.533	0.0316985
873.667	0.0312108
873.802	0.0311411
873.936	0.0312108
874.07	0.0317681
874.205	0.0307928
874.339	0.0300265
874.473	0.0298871
874.607	0.0308625
874.742	0.0300265
874.876	0.0307928
875.01	0.0307928
875.145	0.0316288
875.279	0.0304445
875.413	0.0314895
875.548	0.0313501
875.682	0.0307231
875.816	0.0314895
875.95	0.0308625
876.085	0.0312805
876.219	0.0310715
876.353	0.0319771
876.488	0.0304445
876.622	0.0316288
876.756	0.0311411
876.89	0.0316985
877.025	0.0297478
877.159	0.0310018
877.293	0.0316985
877.428	0.0296781
877.562	0.0307928
877.696	0.0306535
877.83	0.0312805
877.965	0.0316288
878.099	0.0318378
878.233	0.0314895
878.368	0.0307231
878.502	0.0313501
878.636	0.0312805
878.77	0.0307231
878.905	0.0310018
879.039	0.0314198
879.173	0.0318378
879.308	0.0305838
879.442	0.0318378
879.576	0.0312108
879.71	0.0309321
879.845	0.0307928
879.979	0.0310018
880.113	0.0308625
880.248	0.0306535
880.382	0.0311411
880.516	0.0302355
880.65	0.0315591
880.785	0.0305838
880.919	0.0306535
881.053	0.0321165
881.188	0.0296781
881.322	0.0314198
881.456	0.0305141
881.59	0.0308625
881.725	0.0302355
881.859	0.0312108
881.993	0.0314895
882.127	0.0312108
882.262	0.0309321
882.396	0.0312805
882.53	0.0313501
882.665	0.0310715
882.799	0.0300961
882.933	0.0316288
883.067	0.0307928
883.202	0.0313501
883.336	0.0313501
883.47	0.0309321
883.604	0.0311411
883.739	0.0320468
883.873	0.0300265
884.007	0.0312108
884.142	0.0309321
884.276	0.0317681
884.41	0.0308625
884.544	0.0315591
884.679	0.0310018
884.813	0.0310715
884.947	0.0303051
885.081	0.0306535
885.216	0.0305838
885.35	0.0305838
885.484	0.0314895
885.618	0.0316985
885.753	0.0316985
885.887	0.0309321
886.021	0.0309321
886.155	0.0314198
886.29	0.0325345
886.424	0.0311411
886.558	0.0307231
886.693	0.0310715
886.827	0.0315591
886.961	0.0307928
887.095	0.0319771
887.23	0.0299568
887.364	0.0308625
887.498	0.0308625
887.632	0.0312805
887.767	0.0320468
887.901	0.0317681
888.035	0.0312805
888.169	0.0312805
888.304	0.0307928
888.438	0.0302355
888.572	0.0312805
888.706	0.0311411
888.841	0.0321165
888.975	0.0310018
889.109	0.0309321
889.243	0.0310715
889.378	0.0313501
889.512	0.0304445
889.646	0.0311411
889.78	0.0307928
889.915	0.0311411
890.049	0.0314198
890.183	0.0314895
890.317	0.0317681
890.452	0.0319771
890.586	0.0309321
890.72	0.0306535
890.854	0.0323952
890.989	0.0300265
891.123	0.0306535
891.257	0.0312805
891.391	0.0312108
891.526	0.0309321
891.66	0.0311411
891.794	0.0303748
891.928	0.0303748
892.063	0.0300961
892.197	0.0312805
892.331	0.0303748
892.465	0.0307928
892.6	0.0305838
892.734	0.0321165
892.868	0.0315591
893.002	0.0319075
893.137	0.0314198
893.271	0.0308625
893.405	0.0306535
893.539	0.0310018
893.674	0.0305141
893.808	0.0312108
893.942	0.0310715
894.076	0.0316985
894.21	0.0314895
894.345	0.0311411
894.479	0.0310018
894.613	0.0321165
894.747	0.0306535
894.882	0.0302355
895.016	0.0321165
895.15	0.0308625
895.284	0.0317681
895.419	0.0305838
895.553	0.0309321
895.687	0.0315591
895.821	0.0310715
895.956	0.0308625
896.09	0.0313501
896.224	0.0316288
896.358	0.0304445
896.492	0.0303748
896.627	0.0313501
896.761	0.0310018
896.895	0.0319771
897.029	0.0306535
897.164	0.0319075
897.298	0.0314895
897.432	0.0324648
897.566	0.0308625
897.701	0.0314895
897.835	0.0310018
897.969	0.0306535
898.103	0.0314198
898.237	0.0314895
898.372	0.0302355
898.506	0.0307928
898.64	0.0313501
898.774	0.0304445
898.909	0.0308625
899.043	0.0312805
899.177	0.0310018
899.311	0.0312805
899.445	0.0317681
899.58	0.0310018
899.714	0.0312805
899.848	0.0299568
899.982	0.0312108
900.117	0.0314895
900.251	0.0312108
900.385	0.0311411
900.519	0.0311411
900.653	0.0314198
900.788	0.0305838
900.922	0.0306535
901.056	0.0311411
901.19	0.0313501
901.325	0.0310715
901.459	0.0305838
901.593	0.0315591
901.727	0.0315591
901.861	0.0309321
901.996	0.0312108
902.13	0.0309321
902.264	0.0325345
902.398	0.0315591
902.532	0.0318378
902.667	0.0312108
902.801	0.0316288
902.935	0.0307231
903.069	0.0316985
903.204	0.0309321
903.338	0.0317681
903.472	0.0317681
903.606	0.0316288
903.74	0.0316985
903.875	0.0320468
904.009	0.0312108
904.143	0.0316288
904.277	0.0306535
904.411	0.0310715
904.546	0.0305141
904.68	0.0303051
904.814	0.0311411
904.948	0.0316985
905.082	0.0316985
905.217	0.0316288
905.351	0.0310018
905.485	0.0316985
905.619	0.0313501
905.753	0.0312805
905.888	0.0310715
906.022	0.0311411
906.156	0.0302355
906.29	0.0301658
906.424	0.0310715
906.559	0.0313501
906.693	0.0309321
906.827	0.0316288
906.961	0.0310715
907.095	0.0312108
907.23	0.0314198
907.364	0.0316985
907.498	0.0314895
907.632	0.0314895
907.766	0.0313501
907.901	0.0316288
908.035	0.0310018
908.169	0.0311411
908.303	0.0306535
908.437	0.0314198
908.572	0.0297478
908.706	0.0308625
908.84	0.0299568
908.974	0.0312108
909.108	0.0318378
909.243	0.0305838
909.377	0.0308625
909.511	0.0305141
909.645	0.0314895
909.779	0.0306535
909.914	0.0313501
910.048	0.0307231
910.182	0.0310018
910.316	0.0304445
910.45	0.0312108
910.585	0.0303748
910.719	0.0307928
910.853	0.0305838
910.987	0.0309321
911.121	0.0321165
911.255	0.0310715
911.39	0.0310018
911.524	0.0310018
911.658	0.0319075
911.792	0.0303748
911.926	0.0318378
912.061	0.0309321
912.195	0.0311411
912.329	0.0314895
912.463	0.0312108
912.597	0.0307928
912.732	0.0320468
912.866	0.0313501
913	0.0311411
913.134	0.0308625
913.268	0.0312805
913.402	0.0315591
913.537	0.0309321
913.671	0.0307928
913.805	0.0320468
913.939	0.0313501
914.073	0.0306535
914.208	0.0310018
914.342	0.0316288
914.476	0.0312108
914.61	0.0305141
914.744	0.0308625
914.878	0.0314895
915.013	0.0310715
915.147	0.0312108
915.281	0.0305141
915.415	0.0306535
915.549	0.0314895
915.683	0.0310018
915.818	0.0318378
915.952	0.0315591
916.086	0.0319075
916.22	0.0314198
916.354	0.0317681
916.488	0.0312108
916.623	0.0304445
916.757	0.0306535
916.891	0.0307928
917.025	0.0309321
917.159	0.0305838
917.293	0.0320468
917.428	0.0307928
917.562	0.0320468
917.696	0.0294691
917.83	0.0313501
917.964	0.0312805
918.098	0.0318378
918.233	0.0314198
918.367	0.0326042
918.501	0.0312805
918.635	0.0309321
918.769	0.0316985
918.903	0.0310715
919.038	0.0318378
919.172	0.0303051
919.306	0.0308625
919.44	0.0298871
919.574	0.0321165
919.708	0.0318378
919.843	0.0314198
919.977	0.0308625
920.111	0.0311411
920.245	0.0320468
920.379	0.0305141
920.513	0.0307231
920.648	0.0300961
920.782	0.0317681
920.916	0.0309321
921.05	0.0316288
921.184	0.0300265
921.318	0.0314198
921.453	0.0316288
921.587	0.0316985
921.721	0.0314895
921.855	0.0314895
921.989	0.0315591
922.123	0.0312805
922.257	0.0305838
922.392	0.0307928
922.526	0.0304445
922.66	0.0319771
922.794	0.0311411
922.928	0.0310018
923.062	0.0323952
923.197	0.0312805
923.331	0.0305141
923.465	0.0303748
923.599	0.0305838
923.733	0.0321165
923.867	0.0308625
924.001	0.0315591
924.136	0.0312108
924.27	0.0303748
924.404	0.0301658
924.538	0.0321165
924.672	0.0319075
924.806	0.0308625
924.94	0.0312108
925.075	0.0307231
925.209	0.0300961
925.343	0.0313501
925.477	0.0304445
925.611	0.0309321
925.745	0.0323255
925.879	0.0315591
926.014	0.0319771
926.148	0.0311411
926.282	0.0314895
926.416	0.0311411
926.55	0.0312805
926.684	0.0301658
926.818	0.0309321
926.953	0.0311411
927.087	0.0311411
927.221	0.0312805
927.355	0.0310018
927.489	0.0302355
927.623	0.0312108
927.757	0.0319075
927.892	0.0296085
928.026	0.0310715
928.16	0.0316288
928.294	0.0312805
928.428	0.0326738
928.562	0.0307928
928.696	0.0314198
928.831	0.0312108
928.965	0.0312108
929.099	0.0314895
929.233	0.0312108
929.367	0.0310715
929.501	0.0318378
929.635	0.0306535
929.769	0.0308625
929.904	0.0311411
930.038	0.0310715
930.172	0.0314198
930.306	0.0315591
930.44	0.0305838
930.574	0.0314198
930.708	0.0319771
930.843	0.0313501
930.977	0.0321862
931.111	0.0312108
931.245	0.0305838
931.379	0.0306535
931.513	0.0313501
931.647	0.0314198
931.781	0.0305141
931.916	0.0317681
932.05	0.0310715
932.184	0.0307928
932.318	0.0314895
932.452	0.0312108
932.586	0.0305141
932.72	0.0305838
932.854	0.0304445
932.989	0.0314895
933.123	0.0313501
933.257	0.0316985
933.391	0.0310018
933.525	0.0320468
933.659	0.0311411
933.793	0.0316985
933.927	0.0310715
934.061	0.0310715
934.196	0.0314198
934.33	0.0309321
934.464	0.0319075
934.598	0.0316985
934.732	0.0312108
934.866	0.0312805
935	0.0317681
935.134	0.0312805
935.269	0.0309321
935.403	0.0310715
935.537	0.0325345
935.671	0.0308625
935.805	0.0317681
935.939	0.0316985
936.073	0.0319075
936.207	0.0316985
936.341	0.0310715
936.476	0.0308625
936.61	0.0305141
936.744	0.0309321
936.878	0.0317681
937.012	0.0306535
937.146	0.0312805
937.28	0.0307928
937.414	0.0312805
937.548	0.0304445
937.683	0.0310018
937.817	0.0309321
937.951	0.0305141
938.085	0.0303051
938.219	0.0314198
938.353	0.0309321
938.487	0.0297478
938.621	0.0303748
938.755	0.0304445
938.889	0.0305141
939.024	0.0310715
939.158	0.0319075
939.292	0.0310715
939.426	0.0307231
939.56	0.0308625
939.694	0.0303051
939.828	0.0310715
939.962	0.0303051
940.096	0.0319771
940.231	0.0307231
940.365	0.0314198
940.499	0.0310715
940.633	0.0313501
940.767	0.0309321
940.901	0.0318378
941.035	0.0308625
941.169	0.0303748
941.303	0.0317681
941.437	0.0310715
941.571	0.0299568
941.706	0.0318378
941.84	0.0305838
941.974	0.0306535
942.108	0.0318378
942.242	0.0318378
942.376	0.0323952
942.51	0.0298871
942.644	0.0310715
942.778	0.0310018
942.912	0.0309321
943.047	0.0303051
943.181	0.0296781
943.315	0.0305141
943.449	0.0313501
943.583	0.0318378
943.717	0.0322558
943.851	0.0313501
943.985	0.0319771
944.119	0.0315591
944.253	0.0310715
944.387	0.0307928
944.522	0.0305838
944.656	0.0316985
944.79	0.0318378
944.924	0.0319075
945.058	0.0301658
945.192	0.0307231
945.326	0.0315591
945.46	0.0308625
945.594	0.0312805
945.728	0.0310715
945.862	0.0318378
945.996	0.0310715
946.131	0.0314198
946.265	0.0307928
946.399	0.0311411
946.533	0.0314895
946.667	0.0307928
946.801	0.0313501
946.935	0.0305838
947.069	0.0317681
947.203	0.0316985
947.337	0.0307928
947.471	0.0308625
947.605	0.0306535
947.739	0.0306535
947.874	0.0318378
948.008	0.0311411
948.142	0.0311411
948.276	0.0306535
948.41	0.0312805
948.544	0.0307231
948.678	0.0315591
948.812	0.0312805
948.946	0.0306535
949.08	0.0307928
949.214	0.0312805
949.348	0.0314198
949.482	0.0317681
949.617	0.0314198
949.751	0.0305838
949.885	0.0303748
950.019	0.0311411
950.153	0.0311411
950.287	0.0319075
950.421	0.0305838
950.555	0.0308625
950.689	0.0307928
950.823	0.0308625
950.957	0.0312805
951.091	0.0312805
951.225	0.0311411
951.359	0.0310018
951.493	0.0315591
951.628	0.0308625
951.762	0.0316288
951.896	0.0301658
952.03	0.0299568
952.164	0.0308625
952.298	0.0310018
952.432	0.0315591
952.566	0.0296781
952.7	0.0309321
952.834	0.0304445
952.968	0.0307231
953.102	0.0302355
953.236	0.0310715
953.37	0.0313501
953.504	0.0303748
953.639	0.0313501
953.773	0.0300265
953.907	0.0313501
954.041	0.0314198
954.175	0.0317681
954.309	0.0329525
954.443	0.0314895
954.577	0.0312805
954.711	0.0309321
954.845	0.0316288
954.979	0.0306535
955.113	0.0316288
955.247	0.0322558
955.381	0.0319771
955.515	0.0305838
955.649	0.0320468
955.783	0.0314895
955.917	0.0305141
956.052	0.0316288
956.186	0.0309321
956.32	0.0303748
956.454	0.0305838
956.588	0.0305141
956.722	0.0312108
956.856	0.0323255
956.99	0.0309321
957.124	0.0304445
957.258	0.0305141
957.392	0.0305141
957.526	0.0316288
957.66	0.0315591
957.794	0.0314198
957.928	0.0312108
958.062	0.0320468
958.196	0.0297478
958.33	0.0309321
958.464	0.0307231
958.598	0.0315591
958.733	0.0306535
958.867	0.0324648
959.001	0.0306535
959.135	0.0297478
959.269	0.0314895
959.403	0.0316985
959.537	0.0305838
959.671	0.0307928
959.805	0.0305141
959.939	0.0300961
960.073	0.0316288
960.207	0.0312805
960.341	0.0311411
960.475	0.0300961
960.609	0.0310018
960.743	0.0315591
960.877	0.0314895
961.011	0.0304445
961.145	0.0314198
961.279	0.0312108
961.413	0.0311411
961.547	0.0303051
961.681	0.0303748
961.815	0.0319075
961.949	0.0307928
962.083	0.0324648
962.218	0.0310018
962.352	0.0314895
962.486	0.0308625
962.62	0.0303051
962.754	0.0311411
962.888	0.0316985
963.022	0.0316985
963.156	0.0303051
963.29	0.0310715
963.424	0.0308625
963.558	0.0324648
963.692	0.0308625
963.826	0.0310715
963.96	0.0312805
964.094	0.0303748
964.228	0.0314895
964.362	0.0307928
964.496	0.0307928
964.63	0.0312805
964.764	0.0310018
964.898	0.0312805
965.032	0.0312805
965.166	0.0311411
965.3	0.0319771
965.434	0.0316985
965.568	0.0308625
965.702	0.0311411
965.836	0.0313501
965.97	0.0309321
966.104	0.0310715
966.238	0.0303051
966.372	0.0312108
966.506	0.0300961
966.64	0.0314198
966.774	0.0310715
966.908	0.0310715
967.043	0.0305141
967.177	0.0319075
967.311	0.0307231
967.445	0.0312108
967.579	0.0304445
967.713	0.0316288
967.847	0.0315591
967.981	0.0311411
968.115	0.0307928
968.249	0.0313501
968.383	0.0312805
968.517	0.0312805
968.651	0.0300961
968.785	0.0308625
968.919	0.0303051
969.053	0.0316985
969.187	0.0310018
969.321	0.0307231
969.455	0.0310715
969.589	0.0310018
969.723	0.0308625
969.857	0.0314198
969.991	0.0310018
970.125	0.0316985
970.259	0.0319771
970.393	0.0312108
970.527	0.0309321
970.661	0.0314198
970.795	0.0308625
970.929	0.0313501
971.063	0.0310018
971.197	0.0313501
971.331	0.0312805
971.465	0.0314198
971.599	0.0307928
971.733	0.0310018
971.867	0.0303748
972.001	0.0307928
972.135	0.0311411
972.269	0.0310018
972.403	0.0308625
972.537	0.0309321
972.671	0.0307231
972.805	0.0310018
972.939	0.0310018
973.073	0.0307928
973.207	0.0319075
973.341	0.0320468
973.475	0.0316288
973.609	0.0307231
973.743	0.0307231
973.877	0.0307231
974.011	0.0310018
974.145	0.0307231
974.279	0.0315591
974.413	0.0312108
974.547	0.0303748
974.681	0.0312108
974.815	0.0305838
974.949	0.0310018
975.083	0.0316288
975.217	0.0313501
975.351	0.0313501
975.485	0.0310018
975.619	0.0314198
975.753	0.0315591
975.887	0.0320468
976.021	0.0312108
976.155	0.0309321
976.289	0.0312108
976.423	0.0310018
976.557	0.0316288
976.691	0.0303748
976.825	0.0319075
976.959	0.0299568
977.093	0.0307928
977.227	0.0304445
977.361	0.0313501
977.495	0.0310018
977.629	0.0321862
977.763	0.0323952
977.897	0.0314198
978.031	0.0308625
978.165	0.0314895
978.299	0.0316985
978.433	0.0310018
978.567	0.0303051
978.701	0.0313501
978.835	0.0309321
978.969	0.0310715
979.103	0.0316288
979.237	0.0312108
979.371	0.0312805
979.505	0.0312805
979.639	0.0314895
979.773	0.0310018
979.907	0.0308625
980.041	0.0308625
980.175	0.0310018
980.308	0.0310715
980.442	0.0307231
980.576	0.0314198
980.71	0.0306535
980.844	0.0306535
980.978	0.0310018
981.112	0.0311411
981.246	0.0315591
981.38	0.0314198
981.514	0.0309321
981.648	0.0304445
981.782	0.0310018
981.916	0.0314198
982.05	0.0306535
982.184	0.0304445
982.318	0.0310715
982.452	0.0314198
982.586	0.0311411
982.72	0.0312108
982.854	0.0311411
982.988	0.0300961
983.122	0.0315591
983.256	0.0312805
983.39	0.0308625
983.524	0.0312805
983.658	0.0305141
983.792	0.0316985
983.926	0.0312108
984.06	0.0311411
984.194	0.0305838
984.328	0.0315591
984.462	0.0306535
984.596	0.0318378
984.73	0.0310715
984.864	0.0305838
984.998	0.0308625
985.132	0.0321165
985.265	0.0315591
985.399	0.0321862
985.533	0.0323952
985.667	0.0319075
985.801	0.0321862
985.935	0.0314198
986.069	0.0315591
986.203	0.0308625
986.337	0.0310018
986.471	0.0312108
986.605	0.0301658
986.739	0.0310018
986.873	0.0317681
987.007	0.0312805
987.141	0.0321862
987.275	0.0307231
987.409	0.0298175
987.543	0.0317681
987.677	0.0310018
987.811	0.0305838
987.945	0.0305838
988.079	0.0316985
988.213	0.0305838
988.347	0.0316985
988.481	0.0306535
988.614	0.0323255
988.748	0.0312108
988.882	0.0301658
989.016	0.0321862
989.15	0.0309321
989.284	0.0311411
989.418	0.0320468
989.552	0.0319771
989.686	0.0311411
989.82	0.0309321
989.954	0.0310715
990.088	0.0316985
990.222	0.0304445
990.356	0.0306535
990.49	0.0296781
990.624	0.0316288
990.758	0.0310018
990.892	0.0318378
991.026	0.0307928
991.16	0.0308625
991.294	0.0305838
991.427	0.0316985
991.561	0.0313501
991.695	0.0312805
991.829	0.0317681
991.963	0.0310715
992.097	0.0308625
992.231	0.0307928
992.365	0.0310715
992.499	0.0317681
992.633	0.0307928
992.767	0.0307231
992.901	0.0313501
993.035	0.0314198
993.169	0.0310715
993.303	0.0313501
993.437	0.0310715
993.571	0.0300961
993.704	0.0314198
993.838	0.0312108
993.972	0.0309321
994.106	0.0312108
994.24	0.0319771
994.374	0.0315591
994.508	0.0319771
994.642	0.0316288
994.776	0.0314895
994.91	0.0310018
995.044	0.0321862
995.178	0.0311411
995.312	0.0317681
995.446	0.0312805
995.58	0.0310018
995.714	0.0310715
995.847	0.0319075
995.981	0.0310715
996.115	0.0312805
996.249	0.0314198
996.383	0.0306535
996.517	0.0305838
996.651	0.0311411
996.785	0.0309321
996.919	0.0318378
997.053	0.0311411
997.187	0.0319075
997.321	0.0303051
997.455	0.0308625
997.589	0.0305141
997.722	0.0307231
997.856	0.0305141
997.99	0.0307231
998.124	0.0314895
998.258	0.0312108
998.392	0.0313501
998.526	0.0310715
998.66	0.0315591
998.794	0.0309321
998.928	0.0317681
999.062	0.0316985
999.196	0.0305838
999.33	0.0302355
999.464	0.0309321
999.597	0.0312805
999.731	0.0314198
999.865	0.0307231
999.999	0.0312108
1000.13	0.0313501
1000.27	0.0316985
1000.4	0.0320468
1000.53	0.0305141
1000.67	0.0303748
1000.8	0.0315591
1000.94	0.0314895
1001.07	0.0309321
1001.2	0.0312805
1001.34	0.0310018
1001.47	0.0316288
1001.61	0.0314198
1001.74	0.0308625
1001.87	0.0308625
1002.01	0.0310018
1002.14	0.0307231
1002.28	0.0317681
1002.41	0.0315591
1002.54	0.0310018
1002.68	0.0312805
1002.81	0.0313501
1002.95	0.0307928
1003.08	0.0311411
1003.21	0.0310715
1003.35	0.0312805
1003.48	0.0306535
1003.61	0.0307231
1003.75	0.0302355
1003.88	0.0306535
1004.02	0.0314895
1004.15	0.0320468
1004.28	0.0308625
1004.42	0.0322558
1004.55	0.0311411
1004.69	0.0311411
1004.82	0.0306535
1004.95	0.0315591
1005.09	0.0311411
1005.22	0.0315591
1005.36	0.0319771
1005.49	0.0310715
1005.62	0.0314895
1005.76	0.0313501
1005.89	0.0296781
1006.03	0.0311411
1006.16	0.0321862
1006.29	0.0314895
1006.43	0.0312108
1006.56	0.0316288
1006.69	0.0314198
1006.83	0.0303051
1006.96	0.0321862
1007.1	0.0310715
1007.23	0.0314895
1007.36	0.0310018
1007.5	0.0305141
1007.63	0.0312108
1007.77	0.0303748
1007.9	0.0319771
1008.03	0.0314198
1008.17	0.0313501
1008.3	0.0312805
1008.44	0.0314895
1008.57	0.0310018
1008.7	0.0310715
1008.84	0.0303748
1008.97	0.0311411
1009.1	0.0316288
1009.24	0.0305838
1009.37	0.0323255
1009.51	0.0307231
1009.64	0.0314895
1009.77	0.0310018
1009.91	0.0310018
1010.04	0.0316288
1010.18	0.0320468
1010.31	0.0307928
1010.44	0.0312108
1010.58	0.0315591
1010.71	0.0325345
1010.85	0.0312805
1010.98	0.0311411
1011.11	0.0312805
1011.25	0.0314895
1011.38	0.0312805
1011.51	0.0300961
1011.65	0.0307928
1011.78	0.0310715
1011.92	0.0310715
1012.05	0.0299568
1012.18	0.0304445
1012.32	0.0308625
1012.45	0.0310715
1012.59	0.0310018
1012.72	0.0312805
1012.85	0.0311411
1012.99	0.0310018
1013.12	0.0312805
1013.26	0.0307928
1013.39	0.0306535
1013.52	0.0323255
1013.66	0.0311411
1013.79	0.0310715
1013.92	0.0317681
1014.06	0.0321165
1014.19	0.0313501
1014.33	0.0302355
1014.46	0.0316288
1014.59	0.0312108
1014.73	0.0308625
1014.86	0.0311411
1015	0.0312805
1015.13	0.0310715
1015.26	0.0309321
1015.4	0.0311411
1015.53	0.0319771
1015.67	0.0319771
1015.8	0.0300961
1015.93	0.0313501
1016.07	0.0313501
1016.2	0.0321165
1016.33	0.0310715
1016.47	0.0303051
1016.6	0.0315591
1016.74	0.0310715
1016.87	0.0302355
1017	0.0306535
1017.14	0.0324648
1017.27	0.0308625
1017.41	0.0308625
1017.54	0.0319075
1017.67	0.0310715
1017.81	0.0307928
1017.94	0.0304445
1018.07	0.0316985
1018.21	0.0315591
1018.34	0.0314895
1018.48	0.0305838
1018.61	0.0306535
1018.74	0.0304445
1018.88	0.0304445
1019.01	0.0317681
1019.15	0.0318378
1019.28	0.0311411
1019.41	0.0308625
1019.55	0.0313501
1019.68	0.0307928
1019.82	0.0325345
1019.95	0.0307231
1020.08	0.0313501
1020.22	0.0305838
1020.35	0.0310715
1020.48	0.0312108
1020.62	0.0314895
1020.75	0.0314895
1020.89	0.0311411
1021.02	0.0312805
1021.15	0.0322558
1021.29	0.0312805
1021.42	0.0314895
1021.56	0.0305141
1021.69	0.0304445
1021.82	0.0312805
1021.96	0.0312108
1022.09	0.0312805
1022.22	0.0312805
1022.36	0.0309321
1022.49	0.0319075
1022.63	0.0316985
1022.76	0.0323952
1022.89	0.0309321
1023.03	0.0304445
1023.16	0.0315591
1023.3	0.0319075
1023.43	0.0320468
1023.56	0.0308625
1023.7	0.0311411
1023.83	0.0314895
1023.96	0.0316288
1024.1	0.0310715
1024.23	0.0308625
1024.37	0.0306535
1024.5	0.0318378
1024.63	0.0321862
1024.77	0.0314198
1024.9	0.0310018
1025.04	0.0316985
1025.17	0.0317681
1025.3	0.0312108
1025.44	0.0298871
1025.57	0.0310715
1025.7	0.0306535
1025.84	0.0301658
1025.97	0.0310715
1026.11	0.0319075
1026.24	0.0307928
1026.37	0.0318378
1026.51	0.0314198
1026.64	0.0300961
1026.78	0.0313501
1026.91	0.0320468
1027.04	0.0308625
1027.18	0.0323952
1027.31	0.0319075
1027.44	0.0308625
1027.58	0.0318378
1027.71	0.0323952
1027.85	0.0305838
1027.98	0.0315591
1028.11	0.0307928
1028.25	0.0301658
1028.38	0.0314895
1028.52	0.0311411
1028.65	0.0312108
1028.78	0.0307928
1028.92	0.0308625
1029.05	0.0303748
1029.18	0.0308625
1029.32	0.0305838
1029.45	0.0302355
1029.59	0.0311411
1029.72	0.0310715
1029.85	0.0313501
1029.99	0.0323255
1030.12	0.0314895
1030.26	0.0312805
1030.39	0.0316288
1030.52	0.0316985
1030.66	0.0309321
1030.79	0.0311411
1030.92	0.0303051
1031.06	0.0310018
1031.19	0.0310018
1031.33	0.0317681
1031.46	0.0307928
1031.59	0.0312805
1031.73	0.0316288
1031.86	0.0312108
1031.99	0.0313501
1032.13	0.0310715
1032.26	0.0317681
1032.4	0.0307231
1032.53	0.0318378
1032.66	0.0310715
1032.8	0.0311411
1032.93	0.0313501
1033.07	0.0310715
1033.2	0.0312108
1033.33	0.0311411
1033.47	0.0312108
1033.6	0.0310018
1033.73	0.0309321
1033.87	0.0316288
1034	0.0316985
1034.14	0.0325345
1034.27	0.0310018
1034.4	0.0319075
1034.54	0.0306535
1034.67	0.0314198
1034.81	0.0314895
1034.94	0.0315591
1035.07	0.0308625
1035.21	0.0316985
1035.34	0.0314895
1035.47	0.0313501
1035.61	0.0307231
1035.74	0.0310715
1035.88	0.0310715
1036.01	0.0319771
1036.14	0.0318378
1036.28	0.0305838
1036.41	0.0318378
1036.54	0.0301658
1036.68	0.0302355
1036.81	0.0312805
1036.95	0.0312108
1037.08	0.0317681
1037.21	0.0307928
1037.35	0.0311411
1037.48	0.0315591
1037.62	0.0312108
1037.75	0.0303748
1037.88	0.0305141
1038.02	0.0308625
1038.15	0.0320468
1038.28	0.0310715
1038.42	0.0311411
1038.55	0.0307231
1038.69	0.0308625
1038.82	0.0309321
1038.95	0.0311411
1039.09	0.0316288
1039.22	0.0316985
1039.35	0.0313501
1039.49	0.0307928
1039.62	0.0318378
1039.76	0.0305141
1039.89	0.0313501
1040.02	0.0307231
1040.16	0.0308625
1040.29	0.0307928
1040.43	0.0305141
1040.56	0.0305838
1040.69	0.0310715
1040.83	0.0311411
1040.96	0.0314895
1041.09	0.0319771
1041.23	0.0308625
1041.36	0.0312108
1041.5	0.0306535
1041.63	0.0308625
1041.76	0.0309321
1041.9	0.0312108
1042.03	0.0310715
1042.16	0.0307928
1042.3	0.0306535
1042.43	0.0303748
1042.57	0.0305838
1042.7	0.0311411
1042.83	0.0307231
1042.97	0.0312108
1043.1	0.0316985
1043.23	0.0316288
1043.37	0.0315591
1043.5	0.0320468
1043.64	0.0314198
1043.77	0.0315591
1043.9	0.0318378
1044.04	0.0304445
1044.17	0.0309321
1044.31	0.0310018
1044.44	0.0313501
1044.57	0.0305141
1044.71	0.0312108
1044.84	0.0306535
1044.97	0.0311411
1045.11	0.0312805
1045.24	0.0315591
1045.38	0.0319075
1045.51	0.0310715
1045.64	0.0303748
1045.78	0.0312805
1045.91	0.0315591
1046.04	0.0312108
1046.18	0.0320468
1046.31	0.0321165
1046.45	0.0318378
1046.58	0.0320468
1046.71	0.0310715
1046.85	0.0321165
1046.98	0.0321165
1047.11	0.0316288
1047.25	0.0307928
1047.38	0.0303051
1047.52	0.0312108
1047.65	0.0314895
1047.78	0.0312108
1047.92	0.0323952
1048.05	0.0311411
1048.18	0.0299568
1048.32	0.0315591
1048.45	0.0315591
1048.59	0.0316288
1048.72	0.0307928
1048.85	0.0314198
1048.99	0.0319771
1049.12	0.0299568
1049.25	0.0310018
1049.39	0.0312805
1049.52	0.0305141
1049.66	0.0314198
1049.79	0.0307928
1049.92	0.0313501
1050.06	0.0312108
1050.19	0.0318378
1050.33	0.0310018
1050.46	0.0308625
1050.59	0.0317681
1050.73	0.0314895
1050.86	0.0306535
1050.99	0.0302355
1051.13	0.0311411
1051.26	0.0314895
1051.4	0.0313501
1051.53	0.0307928
1051.66	0.0315591
1051.8	0.0310715
1051.93	0.0311411
1052.06	0.0310018
1052.2	0.0314198
1052.33	0.0313501
1052.47	0.0313501
1052.6	0.0312108
1052.73	0.0303748
1052.87	0.0309321
1053	0.0312805
1053.13	0.0307928
1053.27	0.0317681
1053.4	0.0313501
1053.54	0.0304445
1053.67	0.0311411
1053.8	0.0313501
1053.94	0.0308625
1054.07	0.0307231
1054.2	0.0317681
1054.34	0.0320468
1054.47	0.0314895
1054.61	0.0316985
1054.74	0.0319771
1054.87	0.0304445
1055.01	0.0321862
1055.14	0.0326042
1055.27	0.0306535
1055.41	0.0316288
1055.54	0.0313501
1055.68	0.0305141
1055.81	0.0316288
1055.94	0.0317681
1056.08	0.0303051
1056.21	0.0319075
1056.34	0.0316985
1056.48	0.0314198
1056.61	0.0312805
1056.75	0.0306535
1056.88	0.0316288
1057.01	0.0312108
1057.15	0.0313501
1057.28	0.0309321
1057.41	0.0319771
1057.55	0.0310715
1057.68	0.0312108
1057.82	0.0310715
1057.95	0.0310018
1058.08	0.0308625
1058.22	0.0315591
1058.35	0.0303051
1058.48	0.0314198
1058.62	0.0309321
1058.75	0.0317681
1058.89	0.0314198
1059.02	0.0310018
1059.15	0.0319075
1059.29	0.0318378
1059.42	0.0315591
1059.55	0.0308625
1059.69	0.0314198
1059.82	0.0305838
1059.96	0.0303051
1060.09	0.0314895
1060.22	0.0310715
1060.36	0.0314895
1060.49	0.0314198
1060.62	0.0300961
1060.76	0.0313501
1060.89	0.0311411
1061.03	0.0311411
1061.16	0.0303051
1061.29	0.0312108
1061.43	0.0312108
1061.56	0.0306535
1061.69	0.0305838
1061.83	0.0312108
1061.96	0.0315591
1062.1	0.0309321
1062.23	0.0314895
1062.36	0.0319771
1062.5	0.0310018
1062.63	0.0312108
1062.76	0.0316288
1062.9	0.0315591
1063.03	0.0317681
1063.17	0.0303051
1063.3	0.0307928
1063.43	0.0317681
1063.57	0.0307231
1063.7	0.0307928
1063.83	0.0304445
1063.97	0.0309321
1064.1	0.0316985
1064.23	0.0323255
1064.37	0.0307231
1064.5	0.0307928
1064.64	0.0308625
1064.77	0.0315591
1064.9	0.0310018
1065.04	0.0312805
1065.17	0.0305838
1065.3	0.0315591
1065.44	0.0291905
1065.57	0.0307928
1065.71	0.0320468
1065.84	0.0314198
1065.97	0.0303051
1066.11	0.0306535
1066.24	0.0310715
1066.37	0.0312805
1066.51	0.0310018
1066.64	0.0307928
1066.78	0.0313501
1066.91	0.0320468
1067.04	0.0310018
1067.18	0.0305838
1067.31	0.0319075
1067.44	0.0317681
1067.58	0.0312805
1067.71	0.0305141
1067.85	0.0310018
1067.98	0.0316288
1068.11	0.0314895
1068.25	0.0313501
1068.38	0.0317681
1068.51	0.0319771
1068.65	0.0312805
1068.78	0.0305141
1068.92	0.0316288
1069.05	0.0314198
1069.18	0.0307231
1069.32	0.0304445
1069.45	0.0311411
1069.58	0.0310018
1069.72	0.0313501
1069.85	0.0314895
1069.98	0.0312108
1070.12	0.0312805
1070.25	0.0310018
1070.39	0.0313501
1070.52	0.0312805
1070.65	0.0308625
1070.79	0.0312108
1070.92	0.0312108
1071.05	0.0309321
1071.19	0.0305838
1071.32	0.0304445
1071.46	0.0314198
1071.59	0.0314895
1071.72	0.0312805
1071.86	0.0305141
1071.99	0.0321862
1072.12	0.0315591
1072.26	0.0303748
1072.39	0.0315591
1072.53	0.0308625
1072.66	0.0312805
1072.79	0.0311411
1072.93	0.0317681
1073.06	0.0314895
1073.19	0.0315591
1073.33	0.0314198
1073.46	0.0321165
1073.59	0.0307928
1073.73	0.0305838
1073.86	0.0304445
1074	0.0310018
1074.13	0.0315591
1074.26	0.0307928
1074.4	0.0296085
1074.53	0.0318378
1074.66	0.0310018
1074.8	0.0306535
1074.93	0.0325345
1075.07	0.0308625
1075.2	0.0314198
1075.33	0.0317681
1075.47	0.0310018
1075.6	0.0315591
1075.73	0.0316288
1075.87	0.0315591
1076	0.0326042
1076.14	0.0316985
1076.27	0.0312805
1076.4	0.0309321
1076.54	0.0319771
1076.67	0.0313501
1076.8	0.0312805
1076.94	0.0314198
1077.07	0.0306535
1077.2	0.0306535
1077.34	0.0314198
1077.47	0.0312108
1077.61	0.0306535
1077.74	0.0315591
1077.87	0.0311411
1078.01	0.0313501
1078.14	0.0309321
1078.27	0.0313501
1078.41	0.0318378
1078.54	0.0300961
1078.68	0.0312805
1078.81	0.0314895
1078.94	0.0316288
1079.08	0.0303051
1079.21	0.0312805
1079.34	0.0317681
1079.48	0.0316985
1079.61	0.0312805
1079.74	0.0312108
1079.88	0.0309321
1080.01	0.0312108
1080.15	0.0313501
1080.28	0.0312805
1080.41	0.0304445
1080.55	0.0321862
1080.68	0.0314895
1080.81	0.0303051
1080.95	0.0309321
1081.08	0.0307928
1081.22	0.0314198
1081.35	0.0316288
1081.48	0.0313501
1081.62	0.0319075
1081.75	0.0313501
1081.88	0.0315591
1082.02	0.0312108
1082.15	0.0300265
1082.28	0.0311411
1082.42	0.0305141
1082.55	0.0314895
1082.69	0.0309321
1082.82	0.0305141
1082.95	0.0316985
1083.09	0.0310018
1083.22	0.0316288
1083.35	0.0314198
1083.49	0.0310018
1083.62	0.0316288
1083.75	0.0310018
1083.89	0.0319771
1084.02	0.0312805
1084.16	0.0314198
1084.29	0.0317681
1084.42	0.0305141
1084.56	0.0310715
1084.69	0.0310715
1084.82	0.0312108
1084.96	0.0306535
1085.09	0.0310715
1085.23	0.0311411
1085.36	0.0315591
1085.49	0.0315591
1085.63	0.0315591
1085.76	0.0308625
1085.89	0.0315591
1086.03	0.0316985
1086.16	0.0310715
1086.29	0.0311411
1086.43	0.0309321
1086.56	0.0317681
1086.7	0.0318378
1086.83	0.0311411
1086.96	0.0311411
1087.1	0.0292601
1087.23	0.0307231
1087.36	0.0310715
1087.5	0.0323255
1087.63	0.0316985
1087.76	0.0309321
1087.9	0.0318378
1088.03	0.0315591
1088.17	0.0303748
1088.3	0.0326042
1088.43	0.0316985
1088.57	0.0309321
1088.7	0.0316288
1088.83	0.0319771
1088.97	0.0304445
1089.1	0.0308625
1089.24	0.0312108
1089.37	0.0312805
1089.5	0.0307231
1089.64	0.0312108
1089.77	0.0322558
1089.9	0.0311411
1090.04	0.0318378
1090.17	0.0312805
1090.3	0.0313501
1090.44	0.0319075
1090.57	0.0309321
1090.71	0.0318378
1090.84	0.0323952
1090.97	0.0307928
1091.11	0.0307928
1091.24	0.0314198
1091.37	0.0322558
1091.51	0.0309321
1091.64	0.0312805
1091.77	0.0303748
1091.91	0.0310715
1092.04	0.0314198
1092.18	0.0316288
1092.31	0.0314198
1092.44	0.0304445
1092.58	0.0298175
1092.71	0.0319075
1092.84	0.0310715
1092.98	0.0309321
1093.11	0.0314198
1093.24	0.0308625
1093.38	0.0301658
1093.51	0.0305838
1093.65	0.0318378
1093.78	0.0307231
1093.91	0.0324648
1094.05	0.0307928
1094.18	0.0319075
1094.31	0.0321862
1094.45	0.0318378
1094.58	0.0314198
1094.71	0.0310018
1094.85	0.0305838
1094.98	0.0314198
1095.12	0.0310018
1095.25	0.0304445
1095.38	0.0302355
1095.52	0.0306535
1095.65	0.0311411
1095.78	0.0316288
1095.92	0.0314895
1096.05	0.0310018
1096.18	0.0303051
1096.32	0.0316288
1096.45	0.0310715
1096.59	0.0313501
1096.72	0.0305141
1096.85	0.0307928
1096.99	0.0311411
1097.12	0.0310715
1097.25	0.0301658
1097.39	0.0303748
1097.52	0.0311411
1097.65	0.0301658
1097.79	0.0313501
1097.92	0.0310715
1098.06	0.0312108
1098.19	0.0305141
1098.32	0.0307928
1098.46	0.0303748
1098.59	0.0321165
1098.72	0.0314895
1098.86	0.0310018
1098.99	0.0315591
1099.12	0.0318378
1099.26	0.0307928
1099.39	0.0317681
1099.53	0.0312108
1099.66	0.0313501
1099.79	0.0316288
1099.93	0.0307231
1100.06	0.0307928
1100.19	0.0306535
1100.33	0.0310715
1100.46	0.0305141
1100.59	0.0309321
1100.73	0.0300961
1100.86	0.0317681
1100.99	0.0310018
1101.13	0.0314198
1101.26	0.0311411
1101.4	0.0311411
1101.53	0.0316985
1101.66	0.0318378
1101.8	0.0310018
1101.93	0.0307928
1102.06	0.0312108
1102.2	0.0317681
1102.33	0.0317681
1102.46	0.0316288
1102.6	0.0316985
1102.73	0.0307928
1102.87	0.0304445
1103	0.0300961
1103.13	0.0312805
1103.27	0.0310018
1103.4	0.0320468
1103.53	0.0313501
1103.67	0.0316288
1103.8	0.0318378
1103.93	0.0312805
1104.07	0.0308625
1104.2	0.0312805
1104.34	0.0314198
1104.47	0.0316288
1104.6	0.0307231
1104.74	0.0312108
1104.87	0.0312108
1105	0.0311411
1105.14	0.0305141
1105.27	0.0319075
1105.4	0.0301658
1105.54	0.0312805
1105.67	0.0318378
1105.8	0.0308625
1105.94	0.0311411
1106.07	0.0307928
1106.21	0.0302355
1106.34	0.0306535
1106.47	0.0316985
1106.61	0.0313501
1106.74	0.0314198
1106.87	0.0326042
1107.01	0.0314198
1107.14	0.0301658
1107.27	0.0312805
1107.41	0.0321862
1107.54	0.0319771

