Source: Spectrum Viewer

Chart: Pulse Spectrum

Series: 
Wavelength (nm)	S (a.u.)
617.638	0.0288714
617.773	0.0275591
617.908	0.0275591
618.043	0.0284339
618.178	0.027934
618.313	0.0284964
618.448	0.027934
618.583	0.0274341
618.718	0.028309
618.853	0.0281215
618.988	0.027934
619.123	0.0282465
619.258	0.027809
619.394	0.0279965
619.529	0.0274966
619.664	0.028059
619.799	0.0279965
619.934	0.0278715
620.069	0.0283715
620.204	0.0282465
620.339	0.0284339
620.474	0.0269341
620.609	0.027934
620.744	0.0273716
620.879	0.0284339
621.014	0.0290589
621.149	0.027684
621.284	0.0278715
621.419	0.0282465
621.554	0.0282465
621.689	0.0273091
621.825	0.028309
621.96	0.027684
622.095	0.028059
622.23	0.027809
622.365	0.0271841
622.5	0.0281215
622.635	0.0281215
622.77	0.0282465
622.905	0.0275591
623.04	0.0294963
623.175	0.0284339
623.31	0.028059
623.445	0.0278715
623.58	0.027934
623.715	0.0273716
623.85	0.0276215
623.985	0.027809
624.12	0.027684
624.255	0.0278715
624.39	0.0277465
624.525	0.0279965
624.661	0.028184
624.796	0.0269341
624.931	0.0279965
625.066	0.028059
625.201	0.027809
625.336	0.027809
625.471	0.028184
625.606	0.0284339
625.741	0.0274341
625.876	0.0282465
626.011	0.0284339
626.146	0.0281215
626.281	0.0276215
626.416	0.0279965
626.551	0.027809
626.686	0.0279965
626.821	0.0282465
626.956	0.0276215
627.091	0.0286214
627.226	0.0284964
627.361	0.0279965
627.496	0.0268716
627.631	0.027684
627.766	0.0286214
627.901	0.028184
628.036	0.0279965
628.171	0.028059
628.307	0.0278715
628.442	0.0273716
628.577	0.028184
628.712	0.0273716
628.847	0.0289339
628.982	0.027684
629.117	0.0271841
629.252	0.0279965
629.387	0.0278715
629.522	0.0282465
629.657	0.028059
629.792	0.0282465
629.927	0.028309
630.062	0.0281215
630.197	0.0283715
630.332	0.028184
630.467	0.0271841
630.602	0.027809
630.737	0.0284339
630.872	0.0285589
631.007	0.0263092
631.142	0.0277465
631.277	0.027684
631.412	0.0276215
631.547	0.028059
631.682	0.0282465
631.817	0.0284964
631.952	0.027684
632.087	0.028184
632.222	0.027934
632.357	0.0286214
632.492	0.028059
632.627	0.0276215
632.762	0.0282465
632.897	0.0285589
633.032	0.0273716
633.167	0.0279965
633.302	0.0284339
633.437	0.028184
633.572	0.0279965
633.707	0.0282465
633.842	0.0278715
633.978	0.028309
634.113	0.028184
634.248	0.0274966
634.383	0.0281215
634.518	0.028309
634.653	0.0291214
634.788	0.0274966
634.923	0.027934
635.058	0.0269966
635.193	0.0285589
635.328	0.0277465
635.463	0.0281215
635.598	0.0285589
635.733	0.0269966
635.868	0.0283715
636.003	0.0286839
636.138	0.0274966
636.273	0.028059
636.408	0.0284339
636.543	0.0278715
636.678	0.0281215
636.813	0.0289339
636.948	0.0283715
637.083	0.0267467
637.218	0.0282465
637.353	0.027809
637.488	0.0274341
637.623	0.027934
637.758	0.0283715
637.893	0.0272466
638.028	0.0281215
638.163	0.0275591
638.298	0.0279965
638.433	0.0286214
638.568	0.027684
638.703	0.028059
638.838	0.028309
638.973	0.0282465
639.108	0.028059
639.243	0.0275591
639.378	0.027684
639.513	0.027809
639.648	0.0282465
639.783	0.0284964
639.918	0.0268091
640.053	0.0288089
640.188	0.0277465
640.323	0.028059
640.458	0.0284964
640.593	0.0278715
640.728	0.028309
640.863	0.0275591
640.998	0.028309
641.133	0.0274966
641.268	0.0274966
641.403	0.027809
641.538	0.0282465
641.673	0.0296213
641.808	0.027809
641.943	0.0281215
642.078	0.0274966
642.213	0.0272466
642.348	0.028059
642.483	0.027809
642.618	0.028184
642.753	0.0285589
642.888	0.028309
643.023	0.0281215
643.158	0.0288089
643.293	0.028309
643.428	0.028059
643.563	0.0287464
643.698	0.0277465
643.833	0.0281215
643.968	0.0273716
644.103	0.027934
644.237	0.0274341
644.372	0.0279965
644.507	0.027934
644.642	0.0283715
644.777	0.028184
644.912	0.028309
645.047	0.0276215
645.182	0.0287464
645.317	0.0281215
645.452	0.0272466
645.587	0.0274966
645.722	0.027934
645.857	0.0274341
645.992	0.0285589
646.127	0.0274966
646.262	0.0271841
646.397	0.028059
646.532	0.0276215
646.667	0.0281215
646.802	0.027934
646.937	0.0274341
647.072	0.0278715
647.207	0.0273091
647.342	0.0277465
647.477	0.0273091
647.612	0.0275591
647.747	0.0281215
647.882	0.028059
648.017	0.027684
648.152	0.027684
648.287	0.0273091
648.422	0.0268716
648.557	0.0266217
648.692	0.0281215
648.827	0.028059
648.962	0.0284964
649.097	0.0269341
649.232	0.0278715
649.367	0.0281215
649.502	0.0274966
649.637	0.0281215
649.772	0.028059
649.906	0.0261217
650.041	0.0281215
650.176	0.0269341
650.311	0.0273091
650.446	0.0291214
650.581	0.027809
650.716	0.0276215
650.851	0.028059
650.986	0.0286839
651.121	0.0278715
651.256	0.0272466
651.391	0.0284964
651.526	0.0270591
651.661	0.0272466
651.796	0.0284964
651.931	0.0279965
652.066	0.0277465
652.201	0.0272466
652.336	0.0278715
652.471	0.028309
652.606	0.0271216
652.741	0.0276215
652.876	0.027934
653.011	0.0286214
653.146	0.027809
653.281	0.0281215
653.415	0.0274341
653.55	0.0279965
653.685	0.028309
653.82	0.0286214
653.955	0.0275591
654.09	0.0284339
654.225	0.0282465
654.36	0.0273716
654.495	0.0282465
654.63	0.0281215
654.765	0.0278715
654.9	0.0276215
655.035	0.0279965
655.17	0.0273091
655.305	0.027809
655.44	0.028309
655.575	0.0273716
655.71	0.0288089
655.845	0.028309
655.98	0.027934
656.115	0.027809
656.25	0.0283715
656.384	0.027684
656.519	0.028184
656.654	0.0281215
656.789	0.0275591
656.924	0.027934
657.059	0.0282465
657.194	0.0283715
657.329	0.0285589
657.464	0.0284339
657.599	0.0291839
657.734	0.0279965
657.869	0.028184
658.004	0.0286214
658.139	0.0274966
658.274	0.0276215
658.409	0.0286839
658.544	0.0281215
658.679	0.027809
658.813	0.027934
658.948	0.0279965
659.083	0.0281215
659.218	0.028309
659.353	0.028059
659.488	0.0284339
659.623	0.0293088
659.758	0.0271841
659.893	0.0271216
660.028	0.027934
660.163	0.0281215
660.298	0.0282465
660.433	0.0271216
660.568	0.0275591
660.703	0.0286839
660.838	0.027934
660.972	0.0286214
661.107	0.0271841
661.242	0.0287464
661.377	0.0274341
661.512	0.028309
661.647	0.028184
661.782	0.028184
661.917	0.0278715
662.052	0.0274341
662.187	0.0279965
662.322	0.028059
662.457	0.0283715
662.592	0.0273091
662.727	0.028184
662.862	0.0286214
662.996	0.0279965
663.131	0.0284339
663.266	0.0274341
663.401	0.027684
663.536	0.0279965
663.671	0.0284964
663.806	0.0271216
663.941	0.0271216
664.076	0.0274966
664.211	0.0281215
664.346	0.027934
664.481	0.0273091
664.616	0.027684
664.75	0.028184
664.885	0.028309
665.02	0.027934
665.155	0.028184
665.29	0.0270591
665.425	0.028059
665.56	0.0269966
665.695	0.0284339
665.83	0.0282465
665.965	0.0265592
666.1	0.0277465
666.235	0.027809
666.37	0.028184
666.504	0.0289964
666.639	0.0283715
666.774	0.0278715
666.909	0.028059
667.044	0.0277465
667.179	0.027684
667.314	0.0281215
667.449	0.0278715
667.584	0.0281215
667.719	0.0283715
667.854	0.0274341
667.989	0.0284339
668.123	0.0286214
668.258	0.028309
668.393	0.0284964
668.528	0.0281215
668.663	0.027934
668.798	0.0272466
668.933	0.0284339
669.068	0.0282465
669.203	0.0282465
669.338	0.028184
669.473	0.0278715
669.607	0.0289964
669.742	0.027934
669.877	0.0277465
670.012	0.0284964
670.147	0.0278715
670.282	0.0271216
670.417	0.0283715
670.552	0.027684
670.687	0.0271216
670.822	0.027684
670.957	0.0261842
671.091	0.0279965
671.226	0.0279965
671.361	0.0277465
671.496	0.027809
671.631	0.027809
671.766	0.0275591
671.901	0.028309
672.036	0.0278715
672.171	0.0288089
672.306	0.0273091
672.44	0.0276215
672.575	0.027809
672.71	0.0278715
672.845	0.0278715
672.98	0.0286214
673.115	0.028059
673.25	0.027809
673.385	0.0281215
673.52	0.028184
673.655	0.028309
673.789	0.0287464
673.924	0.027809
674.059	0.0284339
674.194	0.027809
674.329	0.027684
674.464	0.0274966
674.599	0.0278715
674.734	0.0274341
674.869	0.0282465
675.003	0.028309
675.138	0.0273716
675.273	0.0282465
675.408	0.0271216
675.543	0.0275591
675.678	0.028184
675.813	0.0281215
675.948	0.0288089
676.083	0.0281215
676.217	0.0266217
676.352	0.028309
676.487	0.0277465
676.622	0.027934
676.757	0.0277465
676.892	0.0274341
677.027	0.0273091
677.162	0.0284339
677.297	0.0278715
677.431	0.0284339
677.566	0.028059
677.701	0.0273716
677.836	0.0274341
677.971	0.0281215
678.106	0.028184
678.241	0.0279965
678.376	0.028059
678.511	0.0277465
678.645	0.0286839
678.78	0.0283715
678.915	0.028184
679.05	0.0286839
679.185	0.0283715
679.32	0.027809
679.455	0.027809
679.59	0.028309
679.724	0.0281215
679.859	0.0284964
679.994	0.0285589
680.129	0.028059
680.264	0.0284964
680.399	0.0282465
680.534	0.0277465
680.669	0.0272466
680.803	0.0274966
680.938	0.0272466
681.073	0.028184
681.208	0.0286214
681.343	0.027934
681.478	0.0277465
681.613	0.028309
681.748	0.0277465
681.882	0.0274966
682.017	0.027934
682.152	0.0271216
682.287	0.027934
682.422	0.0285589
682.557	0.0284964
682.692	0.0274966
682.827	0.0274341
682.961	0.0281215
683.096	0.0275591
683.231	0.028059
683.366	0.028309
683.501	0.027809
683.636	0.027934
683.771	0.0281215
683.906	0.0277465
684.04	0.0282465
684.175	0.0274966
684.31	0.027809
684.445	0.027934
684.58	0.0273091
684.715	0.0284964
684.85	0.0282465
684.984	0.0275591
685.119	0.0278715
685.254	0.0281215
685.389	0.0291214
685.524	0.0273716
685.659	0.0286839
685.794	0.0281215
685.928	0.0284964
686.063	0.0283715
686.198	0.0271841
686.333	0.0273716
686.468	0.0281215
686.603	0.0271216
686.738	0.0284964
686.872	0.0273091
687.007	0.028184
687.142	0.0281215
687.277	0.0283715
687.412	0.027684
687.547	0.0286214
687.682	0.0284964
687.816	0.028309
687.951	0.0284339
688.086	0.0276215
688.221	0.0279965
688.356	0.0273091
688.491	0.027809
688.626	0.0273716
688.76	0.028184
688.895	0.0284339
689.03	0.0279965
689.165	0.0286214
689.3	0.0278715
689.435	0.028309
689.57	0.028184
689.704	0.0279965
689.839	0.0277465
689.974	0.0276215
690.109	0.0290589
690.244	0.027809
690.379	0.0274966
690.513	0.0282465
690.648	0.0279965
690.783	0.0284339
690.918	0.0276215
691.053	0.0278715
691.188	0.0284339
691.323	0.0276215
691.457	0.0273091
691.592	0.0284964
691.727	0.028059
691.862	0.0278715
691.997	0.0278715
692.132	0.027809
692.266	0.0274966
692.401	0.028184
692.536	0.028059
692.671	0.0275591
692.806	0.027684
692.941	0.0284964
693.075	0.0272466
693.21	0.028059
693.345	0.028059
693.48	0.0286214
693.615	0.0277465
693.75	0.028184
693.885	0.0284339
694.019	0.0283715
694.154	0.0288714
694.289	0.0274966
694.424	0.0284339
694.559	0.0268716
694.694	0.0276215
694.828	0.0272466
694.963	0.0273091
695.098	0.028309
695.233	0.0286214
695.368	0.028059
695.503	0.0271216
695.637	0.028059
695.772	0.0284339
695.907	0.028184
696.042	0.0275591
696.177	0.0275591
696.312	0.0279965
696.446	0.027684
696.581	0.028059
696.716	0.0278715
696.851	0.0275591
696.986	0.0270591
697.12	0.027809
697.255	0.0288089
697.39	0.0291214
697.525	0.0279965
697.66	0.0279965
697.795	0.0285589
697.929	0.0281215
698.064	0.0281215
698.199	0.0284339
698.334	0.028184
698.469	0.027934
698.604	0.0269341
698.738	0.0279965
698.873	0.0279965
699.008	0.0283715
699.143	0.0281215
699.278	0.028309
699.412	0.0283715
699.547	0.0286214
699.682	0.0285589
699.817	0.0288089
699.952	0.028309
700.087	0.0284339
700.221	0.0274341
700.356	0.0269966
700.491	0.028059
700.626	0.0277465
700.761	0.0288714
700.895	0.0273716
701.03	0.0287464
701.165	0.0289339
701.3	0.0286839
701.435	0.0273716
701.57	0.0287464
701.704	0.0287464
701.839	0.0269341
701.974	0.0277465
702.109	0.0286214
702.244	0.027934
702.378	0.028184
702.513	0.027809
702.648	0.0287464
702.783	0.028184
702.918	0.0275591
703.052	0.0286839
703.187	0.028184
703.322	0.0279965
703.457	0.027684
703.592	0.0279965
703.727	0.0285589
703.861	0.0284339
703.996	0.0270591
704.131	0.0276215
704.266	0.028309
704.401	0.027684
704.535	0.0284964
704.67	0.0278715
704.805	0.0281215
704.94	0.0281215
705.075	0.0284964
705.209	0.0283715
705.344	0.0275591
705.479	0.0284964
705.614	0.027934
705.749	0.0281215
705.883	0.028309
706.018	0.0273716
706.153	0.027934
706.288	0.0271841
706.423	0.0274966
706.557	0.0271841
706.692	0.0281215
706.827	0.0274966
706.962	0.0281215
707.097	0.0284339
707.231	0.0283715
707.366	0.0289339
707.501	0.0283715
707.636	0.028309
707.771	0.0286214
707.905	0.0292463
708.04	0.0276215
708.175	0.0277465
708.31	0.028309
708.445	0.0282465
708.579	0.027684
708.714	0.0286839
708.849	0.028184
708.984	0.0287464
709.118	0.028309
709.253	0.0284339
709.388	0.0283715
709.523	0.0284964
709.658	0.0284339
709.792	0.0289339
709.927	0.0274966
710.062	0.0281215
710.197	0.027934
710.332	0.028309
710.466	0.0278715
710.601	0.027934
710.736	0.028184
710.871	0.0277465
711.006	0.0283715
711.14	0.0277465
711.275	0.0278715
711.41	0.028059
711.545	0.0274341
711.679	0.0273716
711.814	0.0278715
711.949	0.0282465
712.084	0.027684
712.219	0.027934
712.353	0.028184
712.488	0.0274966
712.623	0.0273091
712.758	0.0281215
712.892	0.0279965
713.027	0.028184
713.162	0.028059
713.297	0.027684
713.432	0.028184
713.566	0.028059
713.701	0.0282465
713.836	0.0283715
713.971	0.0281215
714.105	0.0283715
714.24	0.0279965
714.375	0.0277465
714.51	0.0271216
714.645	0.0286839
714.779	0.027809
714.914	0.0272466
715.049	0.028309
715.184	0.0277465
715.318	0.0275591
715.453	0.0293088
715.588	0.0283715
715.723	0.0274341
715.858	0.0284964
715.992	0.0274341
716.127	0.0290589
716.262	0.028184
716.397	0.0277465
716.531	0.028059
716.666	0.0281215
716.801	0.0273091
716.936	0.0279965
717.07	0.0279965
717.205	0.0274341
717.34	0.0279965
717.475	0.0287464
717.61	0.0276215
717.744	0.028184
717.879	0.0286214
718.014	0.0271841
718.149	0.027934
718.283	0.0291839
718.418	0.027684
718.553	0.0278715
718.688	0.0271841
718.822	0.0288714
718.957	0.0272466
719.092	0.027934
719.227	0.0277465
719.361	0.027684
719.496	0.0268716
719.631	0.0282465
719.766	0.0279965
719.9	0.027684
720.035	0.0274341
720.17	0.028059
720.305	0.0283715
720.44	0.0278715
720.574	0.0278715
720.709	0.028059
720.844	0.0291214
720.979	0.0286839
721.113	0.0277465
721.248	0.0284339
721.383	0.0270591
721.518	0.028059
721.652	0.0290589
721.787	0.0277465
721.922	0.0286214
722.057	0.027684
722.191	0.028184
722.326	0.028309
722.461	0.0284339
722.596	0.0274966
722.73	0.027809
722.865	0.0282465
723	0.027684
723.135	0.0281215
723.269	0.027809
723.404	0.028309
723.539	0.0278715
723.674	0.0279965
723.808	0.0288089
723.943	0.0291214
724.078	0.0274341
724.213	0.0277465
724.347	0.0284964
724.482	0.0293713
724.617	0.0277465
724.752	0.0288089
724.886	0.0274966
725.021	0.0276215
725.156	0.0275591
725.291	0.0285589
725.425	0.0276215
725.56	0.0283715
725.695	0.0272466
725.829	0.0283715
725.964	0.027809
726.099	0.027684
726.234	0.028184
726.368	0.0284339
726.503	0.0276215
726.638	0.027934
726.773	0.0276215
726.907	0.0282465
727.042	0.0279965
727.177	0.027684
727.312	0.0273716
727.446	0.0278715
727.581	0.0277465
727.716	0.0268716
727.851	0.027684
727.985	0.028059
728.12	0.0282465
728.255	0.0281215
728.389	0.0275591
728.524	0.0282465
728.659	0.0281215
728.794	0.0276215
728.928	0.028309
729.063	0.028184
729.198	0.028184
729.333	0.0271216
729.467	0.0279965
729.602	0.0284339
729.737	0.0278715
729.872	0.028309
730.006	0.0285589
730.141	0.028184
730.276	0.028059
730.41	0.028059
730.545	0.0278715
730.68	0.028059
730.815	0.0279965
730.949	0.028059
731.084	0.0283715
731.219	0.0277465
731.354	0.0282465
731.488	0.0286214
731.623	0.0273091
731.758	0.0291839
731.892	0.0282465
732.027	0.0281215
732.162	0.0271841
732.297	0.027684
732.431	0.0274341
732.566	0.028184
732.701	0.0281215
732.835	0.028059
732.97	0.0273091
733.105	0.0274341
733.24	0.0286214
733.374	0.0289339
733.509	0.0283715
733.644	0.0276215
733.779	0.027809
733.913	0.0276215
734.048	0.0281215
734.183	0.0277465
734.317	0.0271841
734.452	0.0276215
734.587	0.028184
734.722	0.0273716
734.856	0.0276215
734.991	0.0277465
735.126	0.028059
735.26	0.0274341
735.395	0.0277465
735.53	0.027809
735.665	0.0279965
735.799	0.0273716
735.934	0.028059
736.069	0.027809
736.203	0.0282465
736.338	0.0279965
736.473	0.0285589
736.607	0.028059
736.742	0.0281215
736.877	0.0279965
737.012	0.028059
737.146	0.0290589
737.281	0.0271841
737.416	0.027934
737.55	0.028059
737.685	0.0274966
737.82	0.0286214
737.955	0.0273716
738.089	0.0293088
738.224	0.0282465
738.359	0.0273091
738.493	0.0263717
738.628	0.0276215
738.763	0.0284964
738.897	0.0286214
739.032	0.028309
739.167	0.028309
739.302	0.027809
739.436	0.027934
739.571	0.0284339
739.706	0.0287464
739.84	0.0273091
739.975	0.0273091
740.11	0.0271216
740.244	0.027684
740.379	0.0292463
740.514	0.028309
740.649	0.0275591
740.783	0.0278715
740.918	0.0279965
741.053	0.0278715
741.187	0.0285589
741.322	0.0273091
741.457	0.0279965
741.591	0.0284339
741.726	0.0281215
741.861	0.027684
741.996	0.0278715
742.13	0.0278715
742.265	0.027684
742.4	0.0279965
742.534	0.028059
742.669	0.0286839
742.804	0.027684
742.938	0.0276215
743.073	0.027934
743.208	0.0281215
743.342	0.0278715
743.477	0.0271216
743.612	0.0279965
743.747	0.0282465
743.881	0.0271841
744.016	0.0273091
744.151	0.0284964
744.285	0.027934
744.42	0.027684
744.555	0.027684
744.689	0.028059
744.824	0.0270591
744.959	0.027934
745.093	0.028184
745.228	0.0279965
745.363	0.027934
745.497	0.027934
745.632	0.028059
745.767	0.028059
745.901	0.027684
746.036	0.027809
746.171	0.0289339
746.305	0.027684
746.44	0.0274966
746.575	0.0278715
746.71	0.0279965
746.844	0.0273716
746.979	0.027934
747.114	0.0272466
747.248	0.0278715
747.383	0.0283715
747.518	0.0282465
747.652	0.0276215
747.787	0.0275591
747.922	0.0282465
748.056	0.0279965
748.191	0.0286214
748.326	0.028059
748.46	0.027684
748.595	0.027809
748.73	0.028184
748.864	0.0274966
748.999	0.027934
749.134	0.0276215
749.268	0.0282465
749.403	0.0282465
749.538	0.0285589
749.672	0.0273091
749.807	0.0284964
749.942	0.0277465
750.076	0.0273716
750.211	0.028184
750.346	0.027934
750.48	0.028184
750.615	0.027684
750.75	0.0266217
750.884	0.0285589
751.019	0.0284964
751.154	0.028184
751.288	0.0274341
751.423	0.027934
751.558	0.0279965
751.692	0.0275591
751.827	0.0281215
751.962	0.0273716
752.096	0.0271216
752.231	0.0276215
752.366	0.0279965
752.5	0.028309
752.635	0.0278715
752.77	0.0275591
752.904	0.0284964
753.039	0.0274966
753.174	0.0289339
753.308	0.0279965
753.443	0.0278715
753.578	0.0273716
753.712	0.0278715
753.847	0.0286839
753.982	0.027684
754.116	0.0289339
754.251	0.027684
754.386	0.027809
754.52	0.0281215
754.655	0.0281215
754.79	0.028184
754.924	0.0284964
755.059	0.0266842
755.194	0.028059
755.328	0.0284339
755.463	0.0275591
755.597	0.0286214
755.732	0.028184
755.867	0.027809
756.001	0.0286839
756.136	0.0289964
756.271	0.028059
756.405	0.0279965
756.54	0.027684
756.675	0.027809
756.809	0.0273716
756.944	0.0274966
757.079	0.0281215
757.213	0.027934
757.348	0.0279965
757.483	0.0279965
757.617	0.0273091
757.752	0.027934
757.887	0.027809
758.021	0.0277465
758.156	0.0288089
758.29	0.0273091
758.425	0.0286214
758.56	0.0275591
758.694	0.0274966
758.829	0.028184
758.964	0.0275591
759.098	0.0281215
759.233	0.0283715
759.368	0.0275591
759.502	0.0283715
759.637	0.0270591
759.772	0.028309
759.906	0.0282465
760.041	0.028059
760.175	0.0284964
760.31	0.0284964
760.445	0.0289339
760.579	0.0281215
760.714	0.0283715
760.849	0.0287464
760.983	0.0288714
761.118	0.0284339
761.253	0.028184
761.387	0.0284339
761.522	0.0282465
761.656	0.028059
761.791	0.0281215
761.926	0.0282465
762.06	0.027684
762.195	0.027809
762.33	0.0282465
762.464	0.0277465
762.599	0.0274341
762.733	0.028059
762.868	0.028309
763.003	0.027934
763.137	0.0270591
763.272	0.028184
763.407	0.027809
763.541	0.027934
763.676	0.0282465
763.811	0.0281215
763.945	0.0276215
764.08	0.0277465
764.214	0.0284339
764.349	0.028184
764.484	0.0278715
764.618	0.0276215
764.753	0.0268716
764.888	0.0275591
765.022	0.0274341
765.157	0.0286839
765.291	0.0277465
765.426	0.0288089
765.561	0.028184
765.695	0.0281215
765.83	0.0279965
765.965	0.0288714
766.099	0.0283715
766.234	0.0285589
766.368	0.028059
766.503	0.0278715
766.638	0.0271841
766.772	0.0276215
766.907	0.0281215
767.041	0.0279965
767.176	0.0269966
767.311	0.0275591
767.445	0.0279965
767.58	0.0278715
767.715	0.0275591
767.849	0.0278715
767.984	0.0285589
768.118	0.027934
768.253	0.0278715
768.388	0.028059
768.522	0.028184
768.657	0.027934
768.791	0.027684
768.926	0.0278715
769.061	0.0268091
769.195	0.028309
769.33	0.0282465
769.465	0.028309
769.599	0.0279965
769.734	0.0281215
769.868	0.0285589
770.003	0.0287464
770.138	0.027934
770.272	0.0273716
770.407	0.028184
770.541	0.0276215
770.676	0.0277465
770.811	0.0271841
770.945	0.0269341
771.08	0.0279965
771.214	0.0276215
771.349	0.027934
771.484	0.0288714
771.618	0.0282465
771.753	0.0273091
771.887	0.028309
772.022	0.0282465
772.157	0.027934
772.291	0.0279965
772.426	0.0283715
772.56	0.0274966
772.695	0.0278715
772.83	0.0286214
772.964	0.027809
773.099	0.0282465
773.233	0.028059
773.368	0.0274966
773.503	0.0273716
773.637	0.0264967
773.772	0.0285589
773.906	0.0283715
774.041	0.0279965
774.176	0.027809
774.31	0.0284339
774.445	0.028059
774.579	0.0291839
774.714	0.0286214
774.849	0.0283715
774.983	0.0281215
775.118	0.0286839
775.252	0.0277465
775.387	0.0286214
775.522	0.027684
775.656	0.0281215
775.791	0.027684
775.925	0.027684
776.06	0.0279965
776.195	0.0284339
776.329	0.0281215
776.464	0.0279965
776.598	0.0279965
776.733	0.027934
776.868	0.0278715
777.002	0.0279965
777.137	0.0271841
777.271	0.027684
777.406	0.0273716
777.54	0.0277465
777.675	0.0274966
777.81	0.028309
777.944	0.0272466
778.079	0.0293088
778.213	0.0284339
778.348	0.0281215
778.483	0.0286839
778.617	0.028184
778.752	0.0284964
778.886	0.0286839
779.021	0.0281215
779.155	0.0283715
779.29	0.028059
779.425	0.027934
779.559	0.027684
779.694	0.028184
779.828	0.027809
779.963	0.028059
780.098	0.027934
780.232	0.0277465
780.367	0.0274966
780.501	0.0286214
780.636	0.0278715
780.77	0.028309
780.905	0.0274966
781.04	0.0278715
781.174	0.0269341
781.309	0.0273091
781.443	0.0273091
781.578	0.027809
781.712	0.027684
781.847	0.027934
781.982	0.0271216
782.116	0.0287464
782.251	0.0282465
782.385	0.028059
782.52	0.0288089
782.654	0.0274341
782.789	0.028059
782.924	0.0269341
783.058	0.027934
783.193	0.0275591
783.327	0.028309
783.462	0.0272466
783.596	0.0277465
783.731	0.0288089
783.866	0.0283715
784	0.0278715
784.135	0.0272466
784.269	0.0275591
784.404	0.028184
784.538	0.027684
784.673	0.028184
784.808	0.028309
784.942	0.0269341
785.077	0.027934
785.211	0.0284339
785.346	0.0278715
785.48	0.0284964
785.615	0.0277465
785.75	0.0282465
785.884	0.027684
786.019	0.0275591
786.153	0.0278715
786.288	0.0283715
786.422	0.027934
786.557	0.028184
786.691	0.028184
786.826	0.0288089
786.961	0.0278715
787.095	0.0289964
787.23	0.0281215
787.364	0.028184
787.499	0.027934
787.633	0.0275591
787.768	0.0283715
787.902	0.0282465
788.037	0.0284964
788.172	0.0283715
788.306	0.0279965
788.441	0.0284964
788.575	0.0275591
788.71	0.0284339
788.844	0.0278715
788.979	0.0288714
789.113	0.028059
789.248	0.028059
789.383	0.0274966
789.517	0.0285589
789.652	0.0289964
789.786	0.027934
789.921	0.027809
790.055	0.027934
790.19	0.027684
790.324	0.0273091
790.459	0.0274966
790.594	0.0282465
790.728	0.0279965
790.863	0.0286214
790.997	0.027809
791.132	0.0284964
791.266	0.0287464
791.401	0.027809
791.535	0.0277465
791.67	0.028309
791.804	0.0282465
791.939	0.0289339
792.074	0.0284964
792.208	0.0276215
792.343	0.0289339
792.477	0.0291214
792.612	0.0271216
792.746	0.0278715
792.881	0.0277465
793.015	0.0274966
793.15	0.027684
793.284	0.028184
793.419	0.028184
793.553	0.0274341
793.688	0.027684
793.823	0.0271841
793.957	0.0283715
794.092	0.0284964
794.226	0.027809
794.361	0.028184
794.495	0.0286214
794.63	0.0281215
794.764	0.028184
794.899	0.0279965
795.033	0.028309
795.168	0.0282465
795.302	0.0282465
795.437	0.0276215
795.572	0.0277465
795.706	0.0271216
795.841	0.0288089
795.975	0.0284964
796.11	0.0287464
796.244	0.0285589
796.379	0.027684
796.513	0.0274966
796.648	0.0289339
796.782	0.0277465
796.917	0.0281215
797.051	0.0278715
797.186	0.028184
797.32	0.028059
797.455	0.028309
797.589	0.028184
797.724	0.0286214
797.859	0.0281215
797.993	0.0286214
798.128	0.028309
798.262	0.0288089
798.397	0.027934
798.531	0.0282465
798.666	0.0284339
798.8	0.0288714
798.935	0.0289339
799.069	0.027809
799.204	0.0285589
799.338	0.028059
799.473	0.028059
799.607	0.0283715
799.742	0.0293713
799.876	0.0294338
800.011	0.0277465
800.145	0.0282465
800.28	0.0288714
800.414	0.0293713
800.549	0.0284339
800.683	0.0291839
800.818	0.0284964
800.953	0.0284339
801.087	0.0286839
801.222	0.0285589
801.356	0.0291214
801.491	0.0288089
801.625	0.0295588
801.76	0.0289339
801.894	0.0286839
802.029	0.0286214
802.163	0.0301212
802.298	0.0291839
802.432	0.0287464
802.567	0.0294963
802.701	0.0294338
802.836	0.0294338
802.97	0.0296838
803.105	0.0286839
803.239	0.0294963
803.374	0.0298713
803.508	0.0299338
803.643	0.0307462
803.777	0.0301212
803.912	0.0303712
804.046	0.0300587
804.181	0.0308711
804.315	0.0305587
804.45	0.0313711
804.584	0.0306212
804.719	0.0308711
804.853	0.0309961
804.988	0.0318085
805.122	0.0315586
805.257	0.0324959
805.391	0.0331209
805.526	0.0332458
805.66	0.0330584
805.795	0.0344332
805.929	0.0334958
806.064	0.0347457
806.198	0.0353706
806.333	0.036058
806.467	0.0379328
806.602	0.0377453
806.736	0.0399325
806.871	0.0408699
807.005	0.0455568
807.14	0.0504312
807.274	0.0543682
807.409	0.0527434
807.543	0.0634921
807.678	0.104799
807.812	0.215661
807.947	0.53612
808.081	0.770216
808.216	0.605237
808.35	0.423822
808.485	0.585802
808.619	0.721472
808.754	0.815273
808.888	0.945194
809.023	1
809.157	0.999813
809.292	0.986502
809.426	0.980627
809.561	0.940382
809.695	0.687914
809.83	0.341145
809.964	0.340207
810.099	0.243407
810.233	0.0946757
810.368	0.0458693
810.502	0.0388076
810.637	0.0367454
810.771	0.0350581
810.906	0.0343707
811.04	0.0350581
811.175	0.0337458
811.309	0.0329334
811.444	0.0328709
811.578	0.0326834
811.713	0.0321835
811.847	0.0325584
811.982	0.0310586
812.116	0.0308086
812.251	0.0314336
812.385	0.0307462
812.519	0.0304337
812.654	0.0296838
812.788	0.0309961
812.923	0.0305587
813.057	0.0304962
813.192	0.0304337
813.326	0.0303712
813.461	0.0300587
813.595	0.0296838
813.73	0.0297463
813.864	0.0293713
813.999	0.0297463
814.133	0.0291214
814.268	0.0291839
814.402	0.0290589
814.537	0.0288714
814.671	0.0284339
814.806	0.0291839
814.94	0.0301837
815.075	0.0303712
815.209	0.0288714
815.344	0.0281215
815.478	0.0288089
815.612	0.0282465
815.747	0.0289964
815.881	0.0299338
816.016	0.0288714
816.15	0.0298088
816.285	0.0284339
816.419	0.0287464
816.554	0.0293088
816.688	0.0293713
816.823	0.0290589
816.957	0.0283715
817.092	0.0282465
817.226	0.0288089
817.361	0.0284964
817.495	0.0284964
817.63	0.0288714
817.764	0.028059
817.898	0.0288714
818.033	0.028309
818.167	0.0279965
818.302	0.0294338
818.436	0.027684
818.571	0.0288714
818.705	0.0282465
818.84	0.0286214
818.974	0.027934
819.109	0.0294338
819.243	0.028059
819.378	0.0281215
819.512	0.0277465
819.646	0.027684
819.781	0.028184
819.915	0.0278715
820.05	0.0283715
820.184	0.0290589
820.319	0.0282465
820.453	0.0278715
820.588	0.0286214
820.722	0.028059
820.857	0.0285589
820.991	0.0276215
821.126	0.0291839
821.26	0.0278715
821.394	0.028309
821.529	0.0288714
821.663	0.0291214
821.798	0.0277465
821.932	0.027809
822.067	0.0290589
822.201	0.0284964
822.336	0.027809
822.47	0.0284339
822.605	0.028184
822.739	0.0275591
822.873	0.0278715
823.008	0.0281215
823.142	0.028309
823.277	0.0283715
823.411	0.0278715
823.546	0.0286839
823.68	0.0278715
823.815	0.0289964
823.949	0.0284964
824.083	0.027684
824.218	0.0273716
824.352	0.0282465
824.487	0.0284339
824.621	0.028059
824.756	0.028059
824.89	0.027684
825.025	0.0285589
825.159	0.0283715
825.293	0.0283715
825.428	0.0286214
825.562	0.0285589
825.697	0.0278715
825.831	0.027934
825.966	0.0281215
826.1	0.0288089
826.235	0.028309
826.369	0.0285589
826.503	0.028184
826.638	0.0275591
826.772	0.0283715
826.907	0.0282465
827.041	0.0284964
827.176	0.028184
827.31	0.0284964
827.445	0.0275591
827.579	0.0273091
827.713	0.0281215
827.848	0.0278715
827.982	0.0277465
828.117	0.0285589
828.251	0.0282465
828.386	0.0276215
828.52	0.027684
828.654	0.0288089
828.789	0.0286839
828.923	0.0279965
829.058	0.0285589
829.192	0.0275591
829.327	0.0284964
829.461	0.028309
829.596	0.0269966
829.73	0.0284339
829.864	0.0284339
829.999	0.027934
830.133	0.0284964
830.268	0.0287464
830.402	0.028309
830.537	0.027934
830.671	0.0276215
830.805	0.0281215
830.94	0.0271841
831.074	0.028184
831.209	0.0268716
831.343	0.028309
831.478	0.0276215
831.612	0.0271841
831.746	0.0278715
831.881	0.027934
832.015	0.0274341
832.15	0.0281215
832.284	0.0274341
832.418	0.0281215
832.553	0.0274341
832.687	0.0274341
832.822	0.027934
832.956	0.0279965
833.091	0.0287464
833.225	0.0285589
833.359	0.0266217
833.494	0.0283715
833.628	0.0274966
833.763	0.0266842
833.897	0.0273716
834.032	0.028184
834.166	0.0278715
834.3	0.0276215
834.435	0.027684
834.569	0.028184
834.704	0.0284339
834.838	0.0284339
834.972	0.028309
835.107	0.0286214
835.241	0.0281215
835.376	0.0275591
835.51	0.0281215
835.645	0.027684
835.779	0.0266217
835.913	0.028059
836.048	0.0271841
836.182	0.0274966
836.317	0.0276215
836.451	0.0284964
836.585	0.0285589
836.72	0.0274966
836.854	0.0273716
836.989	0.0268716
837.123	0.0277465
837.257	0.0283715
837.392	0.0274341
837.526	0.0273716
837.661	0.028059
837.795	0.0277465
837.929	0.0281215
838.064	0.0276215
838.198	0.028059
838.333	0.0288089
838.467	0.0278715
838.602	0.0279965
838.736	0.0284339
838.87	0.0284964
839.005	0.027809
839.139	0.0281215
839.274	0.0283715
839.408	0.0279965
839.542	0.0274341
839.677	0.0274341
839.811	0.0281215
839.946	0.0281215
840.08	0.0284339
840.214	0.028059
840.349	0.0281215
840.483	0.0281215
840.618	0.0283715
840.752	0.028059
840.886	0.0277465
841.021	0.0281215
841.155	0.0272466
841.29	0.027934
841.424	0.0273716
841.558	0.0288714
841.693	0.0281215
841.827	0.027809
841.961	0.0271216
842.096	0.0277465
842.23	0.0288089
842.365	0.0281215
842.499	0.0278715
842.633	0.0282465
842.768	0.0274966
842.902	0.0283715
843.037	0.0288714
843.171	0.028059
843.305	0.0282465
843.44	0.0281215
843.574	0.0276215
843.709	0.0286839
843.843	0.0271216
843.977	0.0288714
844.112	0.0270591
844.246	0.0289964
844.381	0.0277465
844.515	0.0286839
844.649	0.0275591
844.784	0.027934
844.918	0.0275591
845.052	0.027934
845.187	0.027684
845.321	0.0273716
845.456	0.0272466
845.59	0.0273716
845.724	0.0277465
845.859	0.027934
845.993	0.0279965
846.128	0.0275591
846.262	0.028184
846.396	0.0278715
846.531	0.0282465
846.665	0.0277465
846.799	0.028309
846.934	0.028059
847.068	0.0281215
847.203	0.0277465
847.337	0.0285589
847.471	0.0286214
847.606	0.027809
847.74	0.0286214
847.874	0.0288089
848.009	0.027684
848.143	0.0274966
848.278	0.0278715
848.412	0.0282465
848.546	0.0279965
848.681	0.027684
848.815	0.0276215
848.949	0.0276215
849.084	0.0275591
849.218	0.0278715
849.353	0.0276215
849.487	0.027684
849.621	0.0279965
849.756	0.0282465
849.89	0.0283715
850.024	0.027684
850.159	0.0276215
850.293	0.028059
850.428	0.0281215
850.562	0.027684
850.696	0.028309
850.831	0.0278715
850.965	0.028059
851.099	0.0271841
851.234	0.0278715
851.368	0.0284339
851.502	0.0278715
851.637	0.0278715
851.771	0.027809
851.906	0.0288089
852.04	0.0283715
852.174	0.0282465
852.309	0.0278715
852.443	0.0275591
852.577	0.0278715
852.712	0.0278715
852.846	0.027809
852.98	0.027684
853.115	0.0291214
853.249	0.027934
853.384	0.0274966
853.518	0.0271216
853.652	0.0286839
853.787	0.027934
853.921	0.0276215
854.055	0.027934
854.19	0.028184
854.324	0.0273091
854.458	0.0274966
854.593	0.0275591
854.727	0.0286839
854.861	0.0288089
854.996	0.028184
855.13	0.0276215
855.265	0.027809
855.399	0.0278715
855.533	0.027809
855.668	0.028184
855.802	0.027934
855.936	0.0281215
856.071	0.0288714
856.205	0.0274966
856.339	0.028184
856.474	0.0279965
856.608	0.0284339
856.742	0.0282465
856.877	0.0284339
857.011	0.0274341
857.145	0.0271216
857.28	0.0288714
857.414	0.027684
857.549	0.0278715
857.683	0.0278715
857.817	0.027684
857.952	0.027684
858.086	0.028184
858.22	0.0277465
858.355	0.0272466
858.489	0.028059
858.623	0.027809
858.758	0.0288089
858.892	0.0272466
859.026	0.0281215
859.161	0.0281215
859.295	0.028309
859.429	0.028059
859.564	0.028184
859.698	0.0278715
859.832	0.0273716
859.967	0.0291839
860.101	0.0282465
860.235	0.0283715
860.37	0.028184
860.504	0.0271216
860.638	0.0281215
860.773	0.0273091
860.907	0.027934
861.041	0.0283715
861.176	0.0278715
861.31	0.0273091
861.444	0.0274341
861.579	0.027934
861.713	0.0274966
861.847	0.028059
861.982	0.0274341
862.116	0.0269966
862.25	0.028059
862.385	0.027684
862.519	0.0275591
862.653	0.0282465
862.788	0.0286214
862.922	0.028184
863.056	0.0282465
863.191	0.0284964
863.325	0.028059
863.459	0.027934
863.594	0.0285589
863.728	0.0289339
863.862	0.0284339
863.997	0.0274966
864.131	0.0274966
864.265	0.027809
864.4	0.0273716
864.534	0.0289964
864.668	0.027684
864.803	0.0271841
864.937	0.027809
865.071	0.0276215
865.206	0.027684
865.34	0.028059
865.474	0.027809
865.609	0.027934
865.743	0.0272466
865.877	0.028059
866.012	0.0281215
866.146	0.0267467
866.28	0.0285589
866.415	0.028059
866.549	0.0286839
866.683	0.0276215
866.818	0.0273716
866.952	0.028059
867.086	0.0277465
867.221	0.027934
867.355	0.0285589
867.489	0.027809
867.623	0.0274341
867.758	0.028309
867.892	0.0276215
868.026	0.0281215
868.161	0.0286214
868.295	0.0278715
868.429	0.0269966
868.564	0.0278715
868.698	0.027809
868.832	0.0276215
868.967	0.0277465
869.101	0.0271841
869.235	0.0278715
869.37	0.027934
869.504	0.0288089
869.638	0.0273716
869.773	0.0277465
869.907	0.0272466
870.041	0.027809
870.175	0.0278715
870.31	0.0276215
870.444	0.027684
870.578	0.0274341
870.713	0.0286214
870.847	0.0273716
870.981	0.028309
871.116	0.0276215
871.25	0.0274341
871.384	0.027809
871.519	0.027684
871.653	0.0278715
871.787	0.0271841
871.921	0.027684
872.056	0.0277465
872.19	0.0285589
872.324	0.0277465
872.459	0.028059
872.593	0.027809
872.727	0.0283715
872.862	0.0270591
872.996	0.028059
873.13	0.0282465
873.264	0.0283715
873.399	0.0285589
873.533	0.028184
873.667	0.027684
873.802	0.0286839
873.936	0.028309
874.07	0.0268091
874.205	0.0277465
874.339	0.0287464
874.473	0.0272466
874.607	0.0282465
874.742	0.0279965
874.876	0.0279965
875.01	0.0276215
875.145	0.0274341
875.279	0.0274341
875.413	0.027934
875.548	0.0277465
875.682	0.027684
875.816	0.0279965
875.95	0.0271216
876.085	0.027809
876.219	0.0285589
876.353	0.0283715
876.488	0.027809
876.622	0.028309
876.756	0.0275591
876.89	0.0272466
877.025	0.027809
877.159	0.027684
877.293	0.0282465
877.428	0.0275591
877.562	0.0283715
877.696	0.028309
877.83	0.0281215
877.965	0.027809
878.099	0.0284339
878.233	0.027809
878.368	0.0273716
878.502	0.0286214
878.636	0.0276215
878.77	0.0286214
878.905	0.028059
879.039	0.0274966
879.173	0.0284339
879.308	0.0278715
879.442	0.027809
879.576	0.027934
879.71	0.0282465
879.845	0.0283715
879.979	0.028309
880.113	0.0273716
880.248	0.0284964
880.382	0.0274966
880.516	0.027684
880.65	0.027684
880.785	0.0288714
880.919	0.0277465
881.053	0.0277465
881.188	0.028309
881.322	0.027809
881.456	0.027684
881.59	0.0274966
881.725	0.027934
881.859	0.0287464
881.993	0.0278715
882.127	0.0273716
882.262	0.0278715
882.396	0.0287464
882.53	0.0283715
882.665	0.0274341
882.799	0.028059
882.933	0.0279965
883.067	0.0275591
883.202	0.0285589
883.336	0.0274341
883.47	0.027684
883.604	0.0273716
883.739	0.0272466
883.873	0.0273716
884.007	0.0290589
884.142	0.0275591
884.276	0.0273716
884.41	0.0279965
884.544	0.0278715
884.679	0.0271841
884.813	0.0284964
884.947	0.0278715
885.081	0.0285589
885.216	0.028309
885.35	0.0281215
885.484	0.0284339
885.618	0.028184
885.753	0.0276215
885.887	0.0271216
886.021	0.028184
886.155	0.027809
886.29	0.0271841
886.424	0.0278715
886.558	0.0274341
886.693	0.0279965
886.827	0.0279965
886.961	0.0277465
887.095	0.0277465
887.23	0.027934
887.364	0.0281215
887.498	0.0276215
887.632	0.0277465
887.767	0.0281215
887.901	0.0272466
888.035	0.0276215
888.169	0.027809
888.304	0.0274341
888.438	0.0278715
888.572	0.0277465
888.706	0.0274341
888.841	0.0277465
888.975	0.0273716
889.109	0.0282465
889.243	0.0271841
889.378	0.0284964
889.512	0.0271216
889.646	0.0284339
889.78	0.0281215
889.915	0.0278715
890.049	0.0283715
890.183	0.0281215
890.317	0.0275591
890.452	0.0273091
890.586	0.0283715
890.72	0.0274966
890.854	0.0282465
890.989	0.0287464
891.123	0.0278715
891.257	0.0286839
891.391	0.0281215
891.526	0.0288089
891.66	0.0275591
891.794	0.0278715
891.928	0.0282465
892.063	0.0274341
892.197	0.0284339
892.331	0.0277465
892.465	0.027934
892.6	0.0283715
892.734	0.0276215
892.868	0.0283715
893.002	0.0277465
893.137	0.0283715
893.271	0.028309
893.405	0.027809
893.539	0.027809
893.674	0.0275591
893.808	0.0279965
893.942	0.0282465
894.076	0.028184
894.21	0.0284964
894.345	0.0279965
894.479	0.0274341
894.613	0.028059
894.747	0.028184
894.882	0.027809
895.016	0.0272466
895.15	0.0274341
895.284	0.0273091
895.419	0.0286214
895.553	0.0281215
895.687	0.027934
895.821	0.0284964
895.956	0.028184
896.09	0.028309
896.224	0.028059
896.358	0.0284339
896.492	0.0286839
896.627	0.0282465
896.761	0.0284964
896.895	0.0271216
897.029	0.028309
897.164	0.0284964
897.298	0.0267467
897.432	0.028184
897.566	0.0284339
897.701	0.0286839
897.835	0.0278715
897.969	0.028184
898.103	0.027809
898.237	0.0284339
898.372	0.028059
898.506	0.028184
898.64	0.0277465
898.774	0.027934
898.909	0.0284339
899.043	0.0287464
899.177	0.0278715
899.311	0.028184
899.445	0.027809
899.58	0.0283715
899.714	0.0278715
899.848	0.0289339
899.982	0.028184
900.117	0.0285589
900.251	0.027934
900.385	0.0274966
900.519	0.0275591
900.653	0.027684
900.788	0.0283715
900.922	0.0283715
901.056	0.0278715
901.19	0.0293713
901.325	0.0281215
901.459	0.027934
901.593	0.0275591
901.727	0.028309
901.861	0.0286839
901.996	0.0272466
902.13	0.028309
902.264	0.0284964
902.398	0.027934
902.532	0.0285589
902.667	0.028184
902.801	0.0271841
902.935	0.0272466
903.069	0.0273091
903.204	0.0279965
903.338	0.0276215
903.472	0.027684
903.606	0.0285589
903.74	0.0278715
903.875	0.0286214
904.009	0.0273716
904.143	0.0279965
904.277	0.0281215
904.411	0.0286839
904.546	0.027934
904.68	0.0277465
904.814	0.0269341
904.948	0.0283715
905.082	0.028059
905.217	0.0278715
905.351	0.028184
905.485	0.027934
905.619	0.0284339
905.753	0.0278715
905.888	0.027934
906.022	0.0277465
906.156	0.0285589
906.29	0.0283715
906.424	0.028059
906.559	0.0283715
906.693	0.0278715
906.827	0.0273716
906.961	0.0277465
907.095	0.0273716
907.23	0.0281215
907.364	0.0283715
907.498	0.0281215
907.632	0.0278715
907.766	0.0277465
907.901	0.0275591
908.035	0.0288714
908.169	0.0278715
908.303	0.027809
908.437	0.027934
908.572	0.0268716
908.706	0.0278715
908.84	0.0272466
908.974	0.0288089
909.108	0.0282465
909.243	0.0281215
909.377	0.028059
909.511	0.0279965
909.645	0.028309
909.779	0.0273716
909.914	0.027934
910.048	0.0284964
910.182	0.0278715
910.316	0.0276215
910.45	0.0272466
910.585	0.028184
910.719	0.0275591
910.853	0.0289964
910.987	0.0285589
911.121	0.0278715
911.255	0.0282465
911.39	0.0278715
911.524	0.0279965
911.658	0.028059
911.792	0.0284339
911.926	0.0288714
912.061	0.0278715
912.195	0.027684
912.329	0.0281215
912.463	0.0284964
912.597	0.0269966
912.732	0.0278715
912.866	0.0282465
913	0.0275591
913.134	0.028059
913.268	0.0281215
913.402	0.027684
913.537	0.0286214
913.671	0.0282465
913.805	0.027809
913.939	0.0269341
914.073	0.0286839
914.208	0.028309
914.342	0.0268716
914.476	0.0283715
914.61	0.0281215
914.744	0.0285589
914.878	0.028184
915.013	0.0267467
915.147	0.028059
915.281	0.0291214
915.415	0.0286214
915.549	0.027684
915.683	0.0283715
915.818	0.0275591
915.952	0.0279965
916.086	0.028059
916.22	0.027809
916.354	0.0270591
916.488	0.0276215
916.623	0.0276215
916.757	0.0279965
916.891	0.0285589
917.025	0.0284964
917.159	0.028309
917.293	0.027684
917.428	0.0276215
917.562	0.0287464
917.696	0.027809
917.83	0.0284339
917.964	0.0273716
918.098	0.0278715
918.233	0.028184
918.367	0.0277465
918.501	0.0281215
918.635	0.028059
918.769	0.0276215
918.903	0.0284964
919.038	0.0283715
919.172	0.0271841
919.306	0.0274966
919.44	0.027934
919.574	0.0273716
919.708	0.0281215
919.843	0.0286214
919.977	0.027934
920.111	0.0283715
920.245	0.0275591
920.379	0.0274966
920.513	0.0279965
920.648	0.0284339
920.782	0.028309
920.916	0.0283715
921.05	0.0284339
921.184	0.027934
921.318	0.0285589
921.453	0.028059
921.587	0.0274966
921.721	0.0282465
921.855	0.0281215
921.989	0.0289339
922.123	0.0274341
922.257	0.028059
922.392	0.0278715
922.526	0.028184
922.66	0.0279965
922.794	0.027809
922.928	0.0284339
923.062	0.027934
923.197	0.0277465
923.331	0.027684
923.465	0.0283715
923.599	0.0281215
923.733	0.0282465
923.867	0.0285589
924.001	0.0285589
924.136	0.0288714
924.27	0.028184
924.404	0.0276215
924.538	0.0281215
924.672	0.0281215
924.806	0.0278715
924.94	0.0273091
925.075	0.0276215
925.209	0.0274966
925.343	0.0276215
925.477	0.0272466
925.611	0.0274966
925.745	0.0274341
925.879	0.027684
926.014	0.0282465
926.148	0.0289339
926.282	0.0285589
926.416	0.0269341
926.55	0.028309
926.684	0.027684
926.818	0.0283715
926.953	0.0289339
927.087	0.0277465
927.221	0.0272466
927.355	0.0276215
927.489	0.0271216
927.623	0.0277465
927.757	0.0285589
927.892	0.0284339
928.026	0.0289964
928.16	0.0284339
928.294	0.0279965
928.428	0.0281215
928.562	0.0274966
928.696	0.028184
928.831	0.027684
928.965	0.0279965
929.099	0.0287464
929.233	0.028184
929.367	0.0279965
929.501	0.0271841
929.635	0.027684
929.769	0.0268091
929.904	0.028309
930.038	0.028309
930.172	0.028309
930.306	0.0281215
930.44	0.0289339
930.574	0.0276215
930.708	0.0279965
930.843	0.0281215
930.977	0.0287464
931.111	0.0279965
931.245	0.028309
931.379	0.0282465
931.513	0.028059
931.647	0.0281215
931.781	0.028059
931.916	0.0273716
932.05	0.0279965
932.184	0.0273716
932.318	0.0284339
932.452	0.0282465
932.586	0.0276215
932.72	0.028059
932.854	0.0289339
932.989	0.0286214
933.123	0.0281215
933.257	0.0273091
933.391	0.0279965
933.525	0.0273091
933.659	0.0275591
933.793	0.0278715
933.927	0.0274966
934.061	0.027684
934.196	0.028309
934.33	0.0279965
934.464	0.0281215
934.598	0.0274341
934.732	0.0277465
934.866	0.0273716
935	0.0279965
935.134	0.0268716
935.269	0.0274966
935.403	0.028309
935.537	0.0278715
935.671	0.0273716
935.805	0.0273091
935.939	0.0274341
936.073	0.0283715
936.207	0.0281215
936.341	0.0285589
936.476	0.0279965
936.61	0.027934
936.744	0.0271841
936.878	0.0286839
937.012	0.0278715
937.146	0.0288089
937.28	0.0273091
937.414	0.0285589
937.548	0.0277465
937.683	0.0295588
937.817	0.0274341
937.951	0.0285589
938.085	0.0282465
938.219	0.0274966
938.353	0.0275591
938.487	0.0274966
938.621	0.0286839
938.755	0.0284964
938.889	0.028059
939.024	0.0281215
939.158	0.028184
939.292	0.0281215
939.426	0.0274341
939.56	0.0287464
939.694	0.027684
939.828	0.028184
939.962	0.027684
940.096	0.027809
940.231	0.0277465
940.365	0.0268716
940.499	0.0285589
940.633	0.027809
940.767	0.0281215
940.901	0.0279965
941.035	0.0276215
941.169	0.0275591
941.303	0.0281215
941.437	0.0272466
941.571	0.0270591
941.706	0.0269966
941.84	0.0279965
941.974	0.0284339
942.108	0.027934
942.242	0.028184
942.376	0.027809
942.51	0.0284964
942.644	0.0273091
942.778	0.0272466
942.912	0.0279965
943.047	0.0275591
943.181	0.027934
943.315	0.0274341
943.449	0.0284339
943.583	0.0277465
943.717	0.0283715
943.851	0.027684
943.985	0.0273091
944.119	0.0283715
944.253	0.0274341
944.387	0.027934
944.522	0.027934
944.656	0.0284964
944.79	0.0278715
944.924	0.028309
945.058	0.027684
945.192	0.0268716
945.326	0.0271841
945.46	0.0286839
945.594	0.027809
945.728	0.0286839
945.862	0.0281215
945.996	0.027809
946.131	0.0274341
946.265	0.0283715
946.399	0.028059
946.533	0.0284964
946.667	0.0289339
946.801	0.0271841
946.935	0.0279965
947.069	0.0282465
947.203	0.0282465
947.337	0.0279965
947.471	0.0284964
947.605	0.0286839
947.739	0.028059
947.874	0.0282465
948.008	0.0281215
948.142	0.0273091
948.276	0.027809
948.41	0.0273716
948.544	0.0277465
948.678	0.027934
948.812	0.0283715
948.946	0.0274341
949.08	0.0283715
949.214	0.0278715
949.348	0.0274341
949.482	0.0273716
949.617	0.0281215
949.751	0.0287464
949.885	0.028184
950.019	0.0274341
950.153	0.0277465
950.287	0.0281215
950.421	0.0279965
950.555	0.0273091
950.689	0.0276215
950.823	0.0293713
950.957	0.028184
951.091	0.0276215
951.225	0.028184
951.359	0.0277465
951.493	0.027934
951.628	0.027934
951.762	0.028184
951.896	0.0283715
952.03	0.0289964
952.164	0.0274966
952.298	0.028184
952.432	0.027684
952.566	0.028059
952.7	0.0278715
952.834	0.027934
952.968	0.0273091
953.102	0.028059
953.236	0.028059
953.37	0.0273716
953.504	0.027809
953.639	0.027809
953.773	0.028309
953.907	0.027809
954.041	0.0285589
954.175	0.0270591
954.309	0.0276215
954.443	0.0273091
954.577	0.0281215
954.711	0.0282465
954.845	0.0278715
954.979	0.0271841
955.113	0.0289339
955.247	0.027684
955.381	0.0277465
955.515	0.028059
955.649	0.0276215
955.783	0.028059
955.917	0.028059
956.052	0.0268091
956.186	0.0278715
956.32	0.0278715
956.454	0.027934
956.588	0.0273091
956.722	0.0284964
956.856	0.028309
956.99	0.027809
957.124	0.0274966
957.258	0.028309
957.392	0.0279965
957.526	0.0288089
957.66	0.027809
957.794	0.0269966
957.928	0.0274966
958.062	0.0277465
958.196	0.027684
958.33	0.0279965
958.464	0.027809
958.598	0.027809
958.733	0.0272466
958.867	0.0274341
959.001	0.0285589
959.135	0.0276215
959.269	0.0281215
959.403	0.0277465
959.537	0.0278715
959.671	0.0281215
959.805	0.0275591
959.939	0.0277465
960.073	0.027684
960.207	0.0284339
960.341	0.0273091
960.475	0.0284964
960.609	0.0271216
960.743	0.0287464
960.877	0.0281215
961.011	0.0285589
961.145	0.027934
961.279	0.0277465
961.413	0.0286839
961.547	0.0290589
961.681	0.028059
961.815	0.027934
961.949	0.0274341
962.083	0.0288714
962.218	0.027684
962.352	0.028184
962.486	0.027809
962.62	0.028059
962.754	0.0279965
962.888	0.027684
963.022	0.0278715
963.156	0.028309
963.29	0.0281215
963.424	0.0278715
963.558	0.027684
963.692	0.0273091
963.826	0.0274966
963.96	0.0284964
964.094	0.0271216
964.228	0.027684
964.362	0.0276215
964.496	0.0275591
964.63	0.0273716
964.764	0.027684
964.898	0.0283715
965.032	0.0288714
965.166	0.0277465
965.3	0.0284339
965.434	0.028059
965.568	0.027934
965.702	0.0272466
965.836	0.028059
965.97	0.0289339
966.104	0.028184
966.238	0.027934
966.372	0.0283715
966.506	0.0275591
966.64	0.0273091
966.774	0.028059
966.908	0.0273716
967.043	0.027684
967.177	0.0269966
967.311	0.028059
967.445	0.0273716
967.579	0.0277465
967.713	0.0269966
967.847	0.0279965
967.981	0.0284339
968.115	0.028309
968.249	0.0278715
968.383	0.0279965
968.517	0.0274966
968.651	0.028184
968.785	0.028309
968.919	0.0282465
969.053	0.027684
969.187	0.027809
969.321	0.027934
969.455	0.0273716
969.589	0.0284339
969.723	0.0278715
969.857	0.028309
969.991	0.0275591
970.125	0.028059
970.259	0.0275591
970.393	0.0271841
970.527	0.0282465
970.661	0.0277465
970.795	0.0269341
970.929	0.0286214
971.063	0.0274966
971.197	0.0278715
971.331	0.027809
971.465	0.0286214
971.599	0.0290589
971.733	0.027684
971.867	0.0273091
972.001	0.027809
972.135	0.0273716
972.269	0.028059
972.403	0.0282465
972.537	0.0282465
972.671	0.0281215
972.805	0.0276215
972.939	0.0288089
973.073	0.0286214
973.207	0.0278715
973.341	0.028184
973.475	0.0277465
973.609	0.0275591
973.743	0.0282465
973.877	0.0279965
974.011	0.028059
974.145	0.0273716
974.279	0.0283715
974.413	0.0286839
974.547	0.0274966
974.681	0.0274966
974.815	0.028184
974.949	0.028059
975.083	0.0278715
975.217	0.027809
975.351	0.028059
975.485	0.0282465
975.619	0.027809
975.753	0.0273091
975.887	0.027809
976.021	0.0288714
976.155	0.0286839
976.289	0.0272466
976.423	0.0279965
976.557	0.027809
976.691	0.0275591
976.825	0.0274966
976.959	0.0273716
977.093	0.0286214
977.227	0.0276215
977.361	0.027684
977.495	0.0274341
977.629	0.027934
977.763	0.028184
977.897	0.0274341
978.031	0.027809
978.165	0.0282465
978.299	0.0287464
978.433	0.028184
978.567	0.0282465
978.701	0.028059
978.835	0.0274966
978.969	0.0269966
979.103	0.0284339
979.237	0.028184
979.371	0.0286839
979.505	0.0285589
979.639	0.0274966
979.773	0.0272466
979.907	0.0286839
980.041	0.0281215
980.175	0.027684
980.308	0.028059
980.442	0.028184
980.576	0.0271841
980.71	0.0274341
980.844	0.0277465
980.978	0.028184
981.112	0.028309
981.246	0.0272466
981.38	0.0269966
981.514	0.0279965
981.648	0.028184
981.782	0.028184
981.916	0.0282465
982.05	0.0288089
982.184	0.0281215
982.318	0.0279965
982.452	0.028184
982.586	0.0291839
982.72	0.027934
982.854	0.027684
982.988	0.0279965
983.122	0.0270591
983.256	0.0272466
983.39	0.0273716
983.524	0.0289339
983.658	0.028309
983.792	0.027934
983.926	0.0275591
984.06	0.0271216
984.194	0.028059
984.328	0.0277465
984.462	0.0272466
984.596	0.028309
984.73	0.0274966
984.864	0.027934
984.998	0.0275591
985.132	0.028184
985.265	0.0281215
985.399	0.0286214
985.533	0.0274966
985.667	0.028059
985.801	0.028309
985.935	0.0284339
986.069	0.027684
986.203	0.0281215
986.337	0.0279965
986.471	0.027684
986.605	0.0274341
986.739	0.028059
986.873	0.0285589
987.007	0.028059
987.141	0.0271216
987.275	0.028059
987.409	0.028059
987.543	0.0282465
987.677	0.0278715
987.811	0.0275591
987.945	0.0272466
988.079	0.0286839
988.213	0.028184
988.347	0.0286214
988.481	0.027809
988.614	0.027809
988.748	0.028059
988.882	0.0277465
989.016	0.0276215
989.15	0.0282465
989.284	0.028309
989.418	0.028184
989.552	0.0281215
989.686	0.0284964
989.82	0.0286214
989.954	0.0276215
990.088	0.0278715
990.222	0.0283715
990.356	0.0277465
990.49	0.0278715
990.624	0.0287464
990.758	0.028184
990.892	0.028059
991.026	0.027809
991.16	0.0276215
991.294	0.0282465
991.427	0.0279965
991.561	0.0286839
991.695	0.0288714
991.829	0.028184
991.963	0.028309
992.097	0.027684
992.231	0.028059
992.365	0.0283715
992.499	0.0274341
992.633	0.027934
992.767	0.0274341
992.901	0.0284339
993.035	0.0269341
993.169	0.027934
993.303	0.0274966
993.437	0.028309
993.571	0.0289339
993.704	0.0288089
993.838	0.0269341
993.972	0.0278715
994.106	0.0278715
994.24	0.0286214
994.374	0.0274966
994.508	0.0275591
994.642	0.0274341
994.776	0.0283715
994.91	0.0284964
995.044	0.0284964
995.178	0.0278715
995.312	0.028184
995.446	0.0284339
995.58	0.0271216
995.714	0.0277465
995.847	0.027809
995.981	0.0287464
996.115	0.0274341
996.249	0.0284339
996.383	0.0284964
996.517	0.028059
996.651	0.0269966
996.785	0.028184
996.919	0.027684
997.053	0.0287464
997.187	0.0284339
997.321	0.0288089
997.455	0.0279965
997.589	0.028184
997.722	0.0282465
997.856	0.0277465
997.99	0.0289339
998.124	0.027809
998.258	0.0273091
998.392	0.0290589
998.526	0.0278715
998.66	0.0274966
998.794	0.0277465
998.928	0.0273716
999.062	0.0273716
999.196	0.0273091
999.33	0.0282465
999.464	0.0281215
999.597	0.028309
999.731	0.0282465
999.865	0.0277465
999.999	0.027809
1000.13	0.0272466
1000.27	0.0276215
1000.4	0.0284339
1000.53	0.028309
1000.67	0.0277465
1000.8	0.0278715
1000.94	0.0277465
1001.07	0.027684
1001.2	0.028184
1001.34	0.027809
1001.47	0.027684
1001.61	0.0287464
1001.74	0.028184
1001.87	0.0276215
1002.01	0.027809
1002.14	0.027684
1002.28	0.0270591
1002.41	0.0274341
1002.54	0.027684
1002.68	0.0270591
1002.81	0.0273091
1002.95	0.0279965
1003.08	0.027934
1003.21	0.0279965
1003.35	0.028059
1003.48	0.0273091
1003.61	0.0287464
1003.75	0.0285589
1003.88	0.028309
1004.02	0.027684
1004.15	0.027809
1004.28	0.0289339
1004.42	0.0274966
1004.55	0.0273716
1004.69	0.0276215
1004.82	0.027934
1004.95	0.028184
1005.09	0.0284339
1005.22	0.0279965
1005.36	0.0277465
1005.49	0.0268716
1005.62	0.028309
1005.76	0.027684
1005.89	0.028309
1006.03	0.0286839
1006.16	0.0286214
1006.29	0.0275591
1006.43	0.0288089
1006.56	0.028309
1006.69	0.0274966
1006.83	0.0287464
1006.96	0.027934
1007.1	0.0272466
1007.23	0.0284964
1007.36	0.027684
1007.5	0.027684
1007.63	0.0289339
1007.77	0.0286214
1007.9	0.0273716
1008.03	0.0276215
1008.17	0.0283715
1008.3	0.028184
1008.44	0.0279965
1008.57	0.027934
1008.7	0.0279965
1008.84	0.027684
1008.97	0.0279965
1009.1	0.0277465
1009.24	0.028309
1009.37	0.0279965
1009.51	0.0279965
1009.64	0.0283715
1009.77	0.0279965
1009.91	0.028059
1010.04	0.0292463
1010.18	0.0287464
1010.31	0.027934
1010.44	0.0291839
1010.58	0.0274341
1010.71	0.0274966
1010.85	0.0277465
1010.98	0.0279965
1011.11	0.0273091
1011.25	0.0274966
1011.38	0.0289964
1011.51	0.0283715
1011.65	0.0278715
1011.78	0.0268716
1011.92	0.0281215
1012.05	0.027809
1012.18	0.027809
1012.32	0.0278715
1012.45	0.0272466
1012.59	0.0281215
1012.72	0.0279965
1012.85	0.0276215
1012.99	0.0269341
1013.12	0.0278715
1013.26	0.027684
1013.39	0.0284964
1013.52	0.0289964
1013.66	0.027809
1013.79	0.0281215
1013.92	0.0276215
1014.06	0.0276215
1014.19	0.027809
1014.33	0.0283715
1014.46	0.0290589
1014.59	0.028184
1014.73	0.027684
1014.86	0.0281215
1015	0.028309
1015.13	0.0281215
1015.26	0.0271216
1015.4	0.0289339
1015.53	0.0276215
1015.67	0.0276215
1015.8	0.0282465
1015.93	0.0278715
1016.07	0.0277465
1016.2	0.027684
1016.33	0.0277465
1016.47	0.0281215
1016.6	0.0281215
1016.74	0.0274966
1016.87	0.0283715
1017	0.0284339
1017.14	0.0273716
1017.27	0.0274966
1017.41	0.027934
1017.54	0.028059
1017.67	0.0281215
1017.81	0.028059
1017.94	0.0274966
1018.07	0.027934
1018.21	0.0278715
1018.34	0.0291839
1018.48	0.028184
1018.61	0.028184
1018.74	0.0273091
1018.88	0.0286214
1019.01	0.0266842
1019.15	0.0286839
1019.28	0.0283715
1019.41	0.0282465
1019.55	0.0273716
1019.68	0.0271841
1019.82	0.0279965
1019.95	0.0286214
1020.08	0.0273091
1020.22	0.027809
1020.35	0.028309
1020.48	0.0277465
1020.62	0.028184
1020.75	0.0278715
1020.89	0.028059
1021.02	0.0282465
1021.15	0.0269341
1021.29	0.0271841
1021.42	0.027934
1021.56	0.0286214
1021.69	0.0271841
1021.82	0.027684
1021.96	0.0281215
1022.09	0.027934
1022.22	0.027684
1022.36	0.0289339
1022.49	0.028184
1022.63	0.0274341
1022.76	0.0287464
1022.89	0.027934
1023.03	0.028309
1023.16	0.0274966
1023.3	0.027934
1023.43	0.027684
1023.56	0.0284339
1023.7	0.028059
1023.83	0.028184
1023.96	0.0291839
1024.1	0.027684
1024.23	0.0274966
1024.37	0.0274966
1024.5	0.028309
1024.63	0.0271841
1024.77	0.027809
1024.9	0.0283715
1025.04	0.027934
1025.17	0.0283715
1025.3	0.028059
1025.44	0.028309
1025.57	0.027809
1025.7	0.028059
1025.84	0.0287464
1025.97	0.0289964
1026.11	0.0278715
1026.24	0.028309
1026.37	0.0282465
1026.51	0.0273716
1026.64	0.028184
1026.78	0.0288089
1026.91	0.0266842
1027.04	0.0278715
1027.18	0.027684
1027.31	0.0281215
1027.44	0.0284339
1027.58	0.027684
1027.71	0.0271841
1027.85	0.0271841
1027.98	0.0281215
1028.11	0.027934
1028.25	0.027809
1028.38	0.0274341
1028.52	0.0286839
1028.65	0.0279965
1028.78	0.0294338
1028.92	0.0282465
1029.05	0.028059
1029.18	0.0284964
1029.32	0.0278715
1029.45	0.027684
1029.59	0.027934
1029.72	0.0278715
1029.85	0.0276215
1029.99	0.0281215
1030.12	0.0281215
1030.26	0.028309
1030.39	0.0291839
1030.52	0.0275591
1030.66	0.027809
1030.79	0.028309
1030.92	0.0283715
1031.06	0.027934
1031.19	0.0271841
1031.33	0.0277465
1031.46	0.0279965
1031.59	0.027684
1031.73	0.0277465
1031.86	0.0286214
1031.99	0.0276215
1032.13	0.0277465
1032.26	0.0278715
1032.4	0.0284339
1032.53	0.0293713
1032.66	0.0266842
1032.8	0.0278715
1032.93	0.027809
1033.07	0.0273091
1033.2	0.0277465
1033.33	0.0284964
1033.47	0.027684
1033.6	0.027684
1033.73	0.0281215
1033.87	0.0288714
1034	0.028059
1034.14	0.028184
1034.27	0.0269341
1034.4	0.0273716
1034.54	0.0274341
1034.67	0.027934
1034.81	0.027684
1034.94	0.0285589
1035.07	0.0275591
1035.21	0.0284964
1035.34	0.0283715
1035.47	0.027934
1035.61	0.027684
1035.74	0.0283715
1035.88	0.0278715
1036.01	0.0287464
1036.14	0.0274966
1036.28	0.0276215
1036.41	0.0281215
1036.54	0.0278715
1036.68	0.0285589
1036.81	0.0286839
1036.95	0.0284339
1037.08	0.0278715
1037.21	0.0266217
1037.35	0.0284964
1037.48	0.027684
1037.62	0.028309
1037.75	0.028059
1037.88	0.027934
1038.02	0.027934
1038.15	0.028309
1038.28	0.0277465
1038.42	0.0288089
1038.55	0.028309
1038.69	0.0269341
1038.82	0.0271216
1038.95	0.0281215
1039.09	0.0271216
1039.22	0.0273091
1039.35	0.0274966
1039.49	0.0273091
1039.62	0.0284339
1039.76	0.027809
1039.89	0.027934
1040.02	0.0272466
1040.16	0.0273716
1040.29	0.027934
1040.43	0.0284339
1040.56	0.028309
1040.69	0.0285589
1040.83	0.0283715
1040.96	0.0286214
1041.09	0.0276215
1041.23	0.0278715
1041.36	0.0276215
1041.5	0.0279965
1041.63	0.0285589
1041.76	0.027934
1041.9	0.0285589
1042.03	0.0279965
1042.16	0.027684
1042.3	0.027934
1042.43	0.0284964
1042.57	0.0271841
1042.7	0.0284339
1042.83	0.0286214
1042.97	0.0289964
1043.1	0.0279965
1043.23	0.0282465
1043.37	0.0274341
1043.5	0.0272466
1043.64	0.0268716
1043.77	0.0282465
1043.9	0.0274966
1044.04	0.0271216
1044.17	0.0276215
1044.31	0.0273091
1044.44	0.0273091
1044.57	0.0277465
1044.71	0.0279965
1044.84	0.0278715
1044.97	0.0277465
1045.11	0.0279965
1045.24	0.027934
1045.38	0.0272466
1045.51	0.0276215
1045.64	0.0282465
1045.78	0.0282465
1045.91	0.028184
1046.04	0.0283715
1046.18	0.0276215
1046.31	0.0284339
1046.45	0.0287464
1046.58	0.0274341
1046.71	0.0277465
1046.85	0.0284339
1046.98	0.0278715
1047.11	0.0284339
1047.25	0.0278715
1047.38	0.0268716
1047.52	0.027934
1047.65	0.0268716
1047.78	0.0279965
1047.92	0.0289964
1048.05	0.0284964
1048.18	0.0288714
1048.32	0.028184
1048.45	0.027684
1048.59	0.0270591
1048.72	0.027934
1048.85	0.0274341
1048.99	0.0284339
1049.12	0.0279965
1049.25	0.027934
1049.39	0.0276215
1049.52	0.0284339
1049.66	0.0275591
1049.79	0.0276215
1049.92	0.027809
1050.06	0.027809
1050.19	0.0274966
1050.33	0.028059
1050.46	0.0274966
1050.59	0.0277465
1050.73	0.0284964
1050.86	0.0285589
1050.99	0.0275591
1051.13	0.0284339
1051.26	0.028184
1051.4	0.0276215
1051.53	0.0271216
1051.66	0.027934
1051.8	0.0284964
1051.93	0.0283715
1052.06	0.0274341
1052.2	0.028059
1052.33	0.0271216
1052.47	0.0277465
1052.6	0.027684
1052.73	0.0277465
1052.87	0.0282465
1053	0.0279965
1053.13	0.0273091
1053.27	0.0278715
1053.4	0.027684
1053.54	0.0281215
1053.67	0.0282465
1053.8	0.028309
1053.94	0.0284339
1054.07	0.0273716
1054.2	0.0273091
1054.34	0.0274966
1054.47	0.0279965
1054.61	0.027934
1054.74	0.0284964
1054.87	0.0282465
1055.01	0.028059
1055.14	0.0278715
1055.27	0.028309
1055.41	0.0278715
1055.54	0.0278715
1055.68	0.0278715
1055.81	0.0283715
1055.94	0.0281215
1056.08	0.027684
1056.21	0.028309
1056.34	0.0281215
1056.48	0.0275591
1056.61	0.027934
1056.75	0.0284964
1056.88	0.0284339
1057.01	0.0282465
1057.15	0.0273716
1057.28	0.0273716
1057.41	0.0278715
1057.55	0.028184
1057.68	0.028184
1057.82	0.027684
1057.95	0.0277465
1058.08	0.0283715
1058.22	0.028309
1058.35	0.0278715
1058.48	0.027934
1058.62	0.0276215
1058.75	0.027934
1058.89	0.0277465
1059.02	0.0285589
1059.15	0.0286839
1059.29	0.0284964
1059.42	0.0279965
1059.55	0.0285589
1059.69	0.027934
1059.82	0.0282465
1059.96	0.0287464
1060.09	0.0276215
1060.22	0.0276215
1060.36	0.027934
1060.49	0.0275591
1060.62	0.0278715
1060.76	0.0290589
1060.89	0.028184
1061.03	0.0283715
1061.16	0.0270591
1061.29	0.0278715
1061.43	0.0282465
1061.56	0.0288089
1061.69	0.0279965
1061.83	0.0279965
1061.96	0.0289964
1062.1	0.0282465
1062.23	0.027934
1062.36	0.0278715
1062.5	0.0281215
1062.63	0.0289339
1062.76	0.0289339
1062.9	0.0284339
1063.03	0.0276215
1063.17	0.0276215
1063.3	0.0276215
1063.43	0.027934
1063.57	0.0273716
1063.7	0.0278715
1063.83	0.027934
1063.97	0.0276215
1064.1	0.0279965
1064.23	0.028309
1064.37	0.0284339
1064.5	0.028184
1064.64	0.027934
1064.77	0.028184
1064.9	0.0282465
1065.04	0.0284339
1065.17	0.028059
1065.3	0.0284339
1065.44	0.027809
1065.57	0.028059
1065.71	0.028184
1065.84	0.0276215
1065.97	0.027684
1066.11	0.0279965
1066.24	0.0274341
1066.37	0.0278715
1066.51	0.028184
1066.64	0.0286214
1066.78	0.027809
1066.91	0.0277465
1067.04	0.0283715
1067.18	0.0279965
1067.31	0.0282465
1067.44	0.027684
1067.58	0.0275591
1067.71	0.027809
1067.85	0.0282465
1067.98	0.028059
1068.11	0.0281215
1068.25	0.028184
1068.38	0.0275591
1068.51	0.0278715
1068.65	0.0284964
1068.78	0.0277465
1068.92	0.0274966
1069.05	0.027809
1069.18	0.0282465
1069.32	0.0272466
1069.45	0.0289964
1069.58	0.0282465
1069.72	0.0290589
1069.85	0.0271841
1069.98	0.0275591
1070.12	0.027684
1070.25	0.0282465
1070.39	0.028184
1070.52	0.0289964
1070.65	0.0281215
1070.79	0.0277465
1070.92	0.0277465
1071.05	0.0272466
1071.19	0.0273091
1071.32	0.0284339
1071.46	0.0274966
1071.59	0.0273091
1071.72	0.0284339
1071.86	0.0289339
1071.99	0.0274341
1072.12	0.0278715
1072.26	0.0284964
1072.39	0.028184
1072.53	0.0283715
1072.66	0.027934
1072.79	0.0279965
1072.93	0.027934
1073.06	0.028059
1073.19	0.0273091
1073.33	0.0273091
1073.46	0.0281215
1073.59	0.0277465
1073.73	0.0283715
1073.86	0.027934
1074	0.0281215
1074.13	0.0268716
1074.26	0.027684
1074.4	0.0274341
1074.53	0.0283715
1074.66	0.0287464
1074.8	0.027684
1074.93	0.0274341
1075.07	0.0275591
1075.2	0.028184
1075.33	0.028184
1075.47	0.027809
1075.6	0.0273716
1075.73	0.0273091
1075.87	0.027684
1076	0.0267467
1076.14	0.0283715
1076.27	0.0286839
1076.4	0.0288714
1076.54	0.0268716
1076.67	0.0284339
1076.8	0.0284964
1076.94	0.028309
1077.07	0.027809
1077.2	0.0284339
1077.34	0.028059
1077.47	0.0278715
1077.61	0.0271841
1077.74	0.0286214
1077.87	0.0273091
1078.01	0.028059
1078.14	0.0277465
1078.27	0.0274341
1078.41	0.0267467
1078.54	0.0274341
1078.68	0.0276215
1078.81	0.0269966
1078.94	0.0274966
1079.08	0.0282465
1079.21	0.0271216
1079.34	0.0273091
1079.48	0.0284964
1079.61	0.0276215
1079.74	0.028059
1079.88	0.028309
1080.01	0.0269966
1080.15	0.0276215
1080.28	0.0282465
1080.41	0.0281215
1080.55	0.0284339
1080.68	0.027684
1080.81	0.0281215
1080.95	0.0274966
1081.08	0.027684
1081.22	0.0286214
1081.35	0.0271841
1081.48	0.0273091
1081.62	0.0275591
1081.75	0.028184
1081.88	0.0267467
1082.02	0.027934
1082.15	0.0274966
1082.28	0.027809
1082.42	0.028309
1082.55	0.0286839
1082.69	0.0281215
1082.82	0.028309
1082.95	0.028059
1083.09	0.028309
1083.22	0.028309
1083.35	0.0274341
1083.49	0.0286214
1083.62	0.0273716
1083.75	0.028309
1083.89	0.0287464
1084.02	0.027684
1084.16	0.027934
1084.29	0.027809
1084.42	0.0274966
1084.56	0.0284339
1084.69	0.027934
1084.82	0.0276215
1084.96	0.0277465
1085.09	0.027809
1085.23	0.0272466
1085.36	0.028059
1085.49	0.0288089
1085.63	0.028059
1085.76	0.0277465
1085.89	0.0282465
1086.03	0.0279965
1086.16	0.0275591
1086.29	0.0287464
1086.43	0.0277465
1086.56	0.027934
1086.7	0.0283715
1086.83	0.0281215
1086.96	0.028184
1087.1	0.028184
1087.23	0.0286214
1087.36	0.0286214
1087.5	0.028309
1087.63	0.028309
1087.76	0.0268091
1087.9	0.0277465
1088.03	0.027934
1088.17	0.0273716
1088.3	0.0288089
1088.43	0.028184
1088.57	0.0281215
1088.7	0.0285589
1088.83	0.028184
1088.97	0.0284964
1089.1	0.0277465
1089.24	0.0274341
1089.37	0.028184
1089.5	0.0286214
1089.64	0.0277465
1089.77	0.0282465
1089.9	0.027809
1090.04	0.028059
1090.17	0.027934
1090.3	0.027684
1090.44	0.0284339
1090.57	0.027684
1090.71	0.028059
1090.84	0.027934
1090.97	0.028059
1091.11	0.0286214
1091.24	0.027684
1091.37	0.0276215
1091.51	0.0289964
1091.64	0.027684
1091.77	0.0274341
1091.91	0.0279965
1092.04	0.0269341
1092.18	0.0278715
1092.31	0.0284964
1092.44	0.028184
1092.58	0.0281215
1092.71	0.028059
1092.84	0.0281215
1092.98	0.028309
1093.11	0.0273091
1093.24	0.0282465
1093.38	0.0278715
1093.51	0.0274966
1093.65	0.028059
1093.78	0.028184
1093.91	0.0276215
1094.05	0.0275591
1094.18	0.0281215
1094.31	0.0282465
1094.45	0.0274966
1094.58	0.027684
1094.71	0.027809
1094.85	0.0276215
1094.98	0.0270591
1095.12	0.0284339
1095.25	0.0273091
1095.38	0.0279965
1095.52	0.027684
1095.65	0.0273716
1095.78	0.0283715
1095.92	0.0282465
1096.05	0.027934
1096.18	0.028059
1096.32	0.0279965
1096.45	0.0277465
1096.59	0.0287464
1096.72	0.028059
1096.85	0.0273091
1096.99	0.0276215
1097.12	0.027934
1097.25	0.028309
1097.39	0.027809
1097.52	0.0284964
1097.65	0.0266842
1097.79	0.027684
1097.92	0.0276215
1098.06	0.0274341
1098.19	0.0277465
1098.32	0.0283715
1098.46	0.0278715
1098.59	0.028184
1098.72	0.0274966
1098.86	0.0282465
1098.99	0.027934
1099.12	0.0285589
1099.26	0.0274341
1099.39	0.0274341
1099.53	0.0274966
1099.66	0.0283715
1099.79	0.0281215
1099.93	0.028059
1100.06	0.0274341
1100.19	0.0287464
1100.33	0.0284964
1100.46	0.0278715
1100.59	0.0282465
1100.73	0.0287464
1100.86	0.028184
1100.99	0.0279965
1101.13	0.0284339
1101.26	0.028184
1101.4	0.0276215
1101.53	0.028059
1101.66	0.0283715
1101.8	0.0271841
1101.93	0.0273716
1102.06	0.0282465
1102.2	0.0274341
1102.33	0.0277465
1102.46	0.0276215
1102.6	0.027809
1102.73	0.0273091
1102.87	0.0276215
1103	0.027934
1103.13	0.027684
1103.27	0.0274341
1103.4	0.0279965
1103.53	0.0278715
1103.67	0.027684
1103.8	0.0282465
1103.93	0.027809
1104.07	0.027684
1104.2	0.0283715
1104.34	0.027684
1104.47	0.0285589
1104.6	0.028309
1104.74	0.028184
1104.87	0.0284339
1105	0.0277465
1105.14	0.0283715
1105.27	0.0288089
1105.4	0.027684
1105.54	0.0284339
1105.67	0.0271216
1105.8	0.027809
1105.94	0.028059
1106.07	0.027684
1106.21	0.0272466
1106.34	0.028309
1106.47	0.027934
1106.61	0.0289339
1106.74	0.0287464
1106.87	0.0271841
1107.01	0.027934
1107.14	0.0273091
1107.27	0.0283715
1107.41	0.0288089
1107.54	0.0286214

