Source: Spectrum Viewer

Chart: Pulse Spectrum

Series: 
Wavelength (nm)	S (a.u.)
617.638	0.0275723
617.773	0.026105
617.908	0.0276946
618.043	0.0276946
618.178	0.0278168
618.313	0.0276946
618.448	0.0273277
618.583	0.0268387
618.718	0.0278168
618.853	0.0276334
618.988	0.0273277
619.123	0.0272055
619.258	0.0264718
619.394	0.0268387
619.529	0.0272666
619.664	0.0268387
619.799	0.0277557
619.934	0.0277557
620.069	0.0276946
620.204	0.0272055
620.339	0.0270221
620.474	0.0275723
620.609	0.0276334
620.744	0.0275112
620.879	0.0275112
621.014	0.0280002
621.149	0.0272666
621.284	0.0276334
621.419	0.0269609
621.554	0.027878
621.689	0.0273889
621.825	0.0273277
621.96	0.0276334
622.095	0.0269609
622.23	0.0273889
622.365	0.0275723
622.5	0.0277557
622.635	0.0270832
622.77	0.0276334
622.905	0.0272055
623.04	0.0287339
623.175	0.0279391
623.31	0.02745
623.445	0.0272666
623.58	0.0276946
623.715	0.0273277
623.85	0.0273889
623.985	0.0279391
624.12	0.0280002
624.255	0.02745
624.39	0.0267164
624.525	0.0275723
624.661	0.0273889
624.796	0.0275112
624.931	0.0270221
625.066	0.0276334
625.201	0.0275112
625.336	0.0273277
625.471	0.027878
625.606	0.0272055
625.741	0.0272666
625.876	0.0269609
626.011	0.0270221
626.146	0.0269609
626.281	0.0273889
626.416	0.0273277
626.551	0.0273277
626.686	0.0273277
626.821	0.0273889
626.956	0.0280614
627.091	0.0284893
627.226	0.0276334
627.361	0.0268998
627.496	0.0268998
627.631	0.0270221
627.766	0.0275723
627.901	0.0266553
628.036	0.0275723
628.171	0.0279391
628.307	0.0273889
628.442	0.0276334
628.577	0.0270832
628.712	0.0280002
628.847	0.0275723
628.982	0.0271443
629.117	0.02745
629.252	0.0278168
629.387	0.0275723
629.522	0.0272666
629.657	0.0273277
629.792	0.0267164
629.927	0.0276946
630.062	0.0278168
630.197	0.0270221
630.332	0.0276334
630.467	0.0273889
630.602	0.0278168
630.737	0.0278168
630.872	0.0276334
631.007	0.0278168
631.142	0.0272666
631.277	0.0270832
631.412	0.0272666
631.547	0.0282448
631.682	0.0282448
631.817	0.0280614
631.952	0.0276334
632.087	0.0272055
632.222	0.0276334
632.357	0.0275723
632.492	0.0275723
632.627	0.0267775
632.762	0.0279391
632.897	0.0268998
633.032	0.0281837
633.167	0.0270221
633.302	0.0279391
633.437	0.0276946
633.572	0.02745
633.707	0.0276946
633.842	0.0271443
633.978	0.0275112
634.113	0.0273277
634.248	0.0272666
634.383	0.02745
634.518	0.0273889
634.653	0.0275112
634.788	0.0280614
634.923	0.0275112
635.058	0.0265941
635.193	0.0275723
635.328	0.0275723
635.463	0.0281225
635.598	0.0278168
635.733	0.0266553
635.868	0.0264107
636.003	0.0281225
636.138	0.0273277
636.273	0.0277557
636.408	0.0270221
636.543	0.0277557
636.678	0.0273277
636.813	0.0276946
636.948	0.0275112
637.083	0.0271443
637.218	0.0273277
637.353	0.0278168
637.488	0.0278168
637.623	0.0264107
637.758	0.0268998
637.893	0.027878
638.028	0.0270221
638.163	0.0271443
638.298	0.0275112
638.433	0.0267164
638.568	0.0272666
638.703	0.0275112
638.838	0.0268998
638.973	0.027878
639.108	0.0272666
639.243	0.0279391
639.378	0.0276946
639.513	0.0271443
639.648	0.0275112
639.783	0.0279391
639.918	0.0273277
640.053	0.0273277
640.188	0.0281225
640.323	0.0272666
640.458	0.0280002
640.593	0.0276334
640.728	0.0271443
640.863	0.027878
640.998	0.0273277
641.133	0.0280002
641.268	0.0276334
641.403	0.0272666
641.538	0.0267775
641.673	0.0280002
641.808	0.0267164
641.943	0.0267775
642.078	0.0272055
642.213	0.0276946
642.348	0.0277557
642.483	0.027878
642.618	0.02745
642.753	0.0273889
642.888	0.0268387
643.023	0.0277557
643.158	0.0268998
643.293	0.0278168
643.428	0.0273277
643.563	0.026533
643.698	0.0272055
643.833	0.0284893
643.968	0.0268387
644.103	0.0270221
644.237	0.0271443
644.372	0.0275112
644.507	0.0277557
644.642	0.027878
644.777	0.0276946
644.912	0.02745
645.047	0.0272055
645.182	0.0281225
645.317	0.0273277
645.452	0.0275112
645.587	0.0270832
645.722	0.0277557
645.857	0.0279391
645.992	0.0283059
646.127	0.0281837
646.262	0.0271443
646.397	0.0282448
646.532	0.0270221
646.667	0.0264718
646.802	0.0281837
646.937	0.0267775
647.072	0.0280614
647.207	0.0270832
647.342	0.0270832
647.477	0.0268387
647.612	0.0279391
647.747	0.0268998
647.882	0.0275112
648.017	0.027878
648.152	0.0269609
648.287	0.0273277
648.422	0.0273277
648.557	0.0268387
648.692	0.0270832
648.827	0.0275112
648.962	0.0277557
649.097	0.027878
649.232	0.0276334
649.367	0.0270832
649.502	0.0280614
649.637	0.0287339
649.772	0.0270832
649.906	0.0271443
650.041	0.0273277
650.176	0.0267775
650.311	0.0281225
650.446	0.0279391
650.581	0.0270832
650.716	0.0270221
650.851	0.0276334
650.986	0.0277557
651.121	0.0277557
651.256	0.0275112
651.391	0.0270832
651.526	0.0278168
651.661	0.027878
651.796	0.0273277
651.931	0.0273277
652.066	0.0267775
652.201	0.0284282
652.336	0.0269609
652.471	0.0281837
652.606	0.0275112
652.741	0.0278168
652.876	0.0278168
653.011	0.0270832
653.146	0.0276946
653.281	0.0268387
653.415	0.0275112
653.55	0.0267775
653.685	0.0273277
653.82	0.0271443
653.955	0.0275112
654.09	0.0277557
654.225	0.0270832
654.36	0.0276334
654.495	0.0275723
654.63	0.02745
654.765	0.0271443
654.9	0.0284282
655.035	0.0277557
655.17	0.027878
655.305	0.0273889
655.44	0.0271443
655.575	0.0272055
655.71	0.0268998
655.845	0.0270832
655.98	0.026533
656.115	0.0267775
656.25	0.0272055
656.384	0.0273889
656.519	0.0276334
656.654	0.02745
656.789	0.0275112
656.924	0.0277557
657.059	0.0272055
657.194	0.026533
657.329	0.0280614
657.464	0.0265941
657.599	0.0279391
657.734	0.0270832
657.869	0.0276334
658.004	0.0268387
658.139	0.02745
658.274	0.0276946
658.409	0.0270832
658.544	0.0272055
658.679	0.0278168
658.813	0.0272055
658.948	0.0271443
659.083	0.0276334
659.218	0.0273277
659.353	0.0276946
659.488	0.0273889
659.623	0.0270832
659.758	0.0280614
659.893	0.0273889
660.028	0.0278168
660.163	0.02745
660.298	0.0264107
660.433	0.0271443
660.568	0.0281225
660.703	0.0267775
660.838	0.0272055
660.972	0.02745
661.107	0.0273889
661.242	0.0270832
661.377	0.0270221
661.512	0.0273889
661.647	0.0281225
661.782	0.0280002
661.917	0.026533
662.052	0.0273889
662.187	0.0268998
662.322	0.0272055
662.457	0.0279391
662.592	0.0276334
662.727	0.0265941
662.862	0.0268998
662.996	0.0269609
663.131	0.0273889
663.266	0.0275112
663.401	0.0272666
663.536	0.0275112
663.671	0.0271443
663.806	0.0275723
663.941	0.0270832
664.076	0.0275112
664.211	0.0272666
664.346	0.0281837
664.481	0.0267164
664.616	0.0271443
664.75	0.0271443
664.885	0.0276946
665.02	0.0265941
665.155	0.0275112
665.29	0.0283059
665.425	0.0267775
665.56	0.0277557
665.695	0.0275112
665.83	0.02745
665.965	0.0267775
666.1	0.0276334
666.235	0.0270221
666.37	0.0276334
666.504	0.0275112
666.639	0.0272666
666.774	0.0281837
666.909	0.0272666
667.044	0.0267775
667.179	0.0270221
667.314	0.0272666
667.449	0.0272666
667.584	0.0270832
667.719	0.0273277
667.854	0.026533
667.989	0.0281837
668.123	0.0270221
668.258	0.0280002
668.393	0.0273889
668.528	0.0277557
668.663	0.0272055
668.798	0.0281837
668.933	0.0270221
669.068	0.0272055
669.203	0.0277557
669.338	0.0272666
669.473	0.0277557
669.607	0.0275723
669.742	0.0272055
669.877	0.0270221
670.012	0.0272055
670.147	0.0270832
670.282	0.0280002
670.417	0.0275112
670.552	0.0275723
670.687	0.0276334
670.822	0.0265941
670.957	0.0276946
671.091	0.0281225
671.226	0.0275723
671.361	0.02745
671.496	0.0277557
671.631	0.0275112
671.766	0.0273889
671.901	0.0268387
672.036	0.0272666
672.171	0.0269609
672.306	0.0272055
672.44	0.0282448
672.575	0.02745
672.71	0.0269609
672.845	0.0271443
672.98	0.0267775
673.115	0.0270221
673.25	0.0271443
673.385	0.0276946
673.52	0.0268998
673.655	0.0273889
673.789	0.0279391
673.924	0.0275723
674.059	0.0276334
674.194	0.0268387
674.329	0.0276334
674.464	0.027878
674.599	0.0271443
674.734	0.0265941
674.869	0.0270221
675.003	0.0264718
675.138	0.0272666
675.273	0.0276946
675.408	0.0270221
675.543	0.0272055
675.678	0.0273277
675.813	0.0276946
675.948	0.0272055
676.083	0.0271443
676.217	0.0278168
676.352	0.0273277
676.487	0.0267164
676.622	0.0275723
676.757	0.0276334
676.892	0.0276334
677.027	0.027878
677.162	0.0275723
677.297	0.0273889
677.431	0.0281225
677.566	0.0278168
677.701	0.0272055
677.836	0.0273889
677.971	0.0271443
678.106	0.0275723
678.241	0.0268998
678.376	0.0276946
678.511	0.0276334
678.645	0.0282448
678.78	0.0277557
678.915	0.0273889
679.05	0.0271443
679.185	0.026533
679.32	0.0285505
679.455	0.0275723
679.59	0.0275112
679.724	0.02745
679.859	0.0265941
679.994	0.0281225
680.129	0.0268998
680.264	0.0269609
680.399	0.0267775
680.534	0.0284282
680.669	0.0264718
680.803	0.0277557
680.938	0.0270221
681.073	0.027878
681.208	0.0271443
681.343	0.0277557
681.478	0.0277557
681.613	0.026533
681.748	0.0266553
681.882	0.0269609
682.017	0.0280614
682.152	0.0278168
682.287	0.0272666
682.422	0.0280002
682.557	0.0279391
682.692	0.0265941
682.827	0.02745
682.961	0.0267775
683.096	0.0270221
683.231	0.0278168
683.366	0.0267164
683.501	0.0279391
683.636	0.0276946
683.771	0.0275723
683.906	0.0270832
684.04	0.0276334
684.175	0.0273889
684.31	0.0273277
684.445	0.0272055
684.58	0.0273889
684.715	0.0265941
684.85	0.0273889
684.984	0.0275112
685.119	0.0272666
685.254	0.0276334
685.389	0.0276946
685.524	0.0268387
685.659	0.0273277
685.794	0.0275723
685.928	0.0276334
686.063	0.0267775
686.198	0.0269609
686.333	0.0275723
686.468	0.0276334
686.603	0.0270221
686.738	0.0277557
686.872	0.0273889
687.007	0.0282448
687.142	0.0272055
687.277	0.0275723
687.412	0.0277557
687.547	0.0279391
687.682	0.0271443
687.816	0.0281837
687.951	0.0275723
688.086	0.0268998
688.221	0.0284893
688.356	0.0273889
688.491	0.0269609
688.626	0.0276334
688.76	0.0280002
688.895	0.02745
689.03	0.0272666
689.165	0.0270832
689.3	0.0272666
689.435	0.0283671
689.57	0.0278168
689.704	0.0271443
689.839	0.0273889
689.974	0.0272666
690.109	0.0273277
690.244	0.0273889
690.379	0.0275112
690.513	0.0264107
690.648	0.0271443
690.783	0.0266553
690.918	0.0268998
691.053	0.0281837
691.188	0.0272055
691.323	0.0270832
691.457	0.0267775
691.592	0.0267775
691.727	0.027878
691.862	0.0281225
691.997	0.0282448
692.132	0.0268998
692.266	0.0278168
692.401	0.0273277
692.536	0.0272666
692.671	0.0275723
692.806	0.027878
692.941	0.0262884
693.075	0.0268387
693.21	0.0267164
693.345	0.02745
693.48	0.0275723
693.615	0.027878
693.75	0.0270832
693.885	0.0266553
694.019	0.0269609
694.154	0.0271443
694.289	0.0272055
694.424	0.0275723
694.559	0.0280614
694.694	0.0271443
694.828	0.0270832
694.963	0.0271443
695.098	0.0283059
695.233	0.0276334
695.368	0.0280002
695.503	0.0268998
695.637	0.0273889
695.772	0.0278168
695.907	0.0267164
696.042	0.0276946
696.177	0.0279391
696.312	0.0275112
696.446	0.0275723
696.581	0.0276334
696.716	0.0273277
696.851	0.0273277
696.986	0.0273889
697.12	0.0275112
697.255	0.026533
697.39	0.0273889
697.525	0.0268998
697.66	0.02745
697.795	0.0270221
697.929	0.0271443
698.064	0.0273889
698.199	0.0282448
698.334	0.027878
698.469	0.0273277
698.604	0.0278168
698.738	0.0272055
698.873	0.0272666
699.008	0.0270221
699.143	0.0267775
699.278	0.0278168
699.412	0.0268387
699.547	0.0272055
699.682	0.0270832
699.817	0.0273889
699.952	0.0275723
700.087	0.0262884
700.221	0.0269609
700.356	0.0278168
700.491	0.0275723
700.626	0.0273889
700.761	0.0270832
700.895	0.02745
701.03	0.0280614
701.165	0.0267775
701.3	0.0275112
701.435	0.0270221
701.57	0.0280002
701.704	0.0266553
701.839	0.0272666
701.974	0.0269609
702.109	0.0279391
702.244	0.0273889
702.378	0.0275723
702.513	0.0266553
702.648	0.0275112
702.783	0.0273889
702.918	0.0270832
703.052	0.0271443
703.187	0.0278168
703.322	0.02745
703.457	0.02745
703.592	0.0270832
703.727	0.0284893
703.861	0.0260439
703.996	0.0277557
704.131	0.0271443
704.266	0.0272666
704.401	0.0270221
704.535	0.027878
704.67	0.0270832
704.805	0.0272055
704.94	0.0268998
705.075	0.0272055
705.209	0.0264718
705.344	0.0277557
705.479	0.02745
705.614	0.0273889
705.749	0.0261662
705.883	0.0272666
706.018	0.0273889
706.153	0.026533
706.288	0.0278168
706.423	0.0272055
706.557	0.0272666
706.692	0.0280002
706.827	0.0276334
706.962	0.0280002
707.097	0.0273277
707.231	0.0268998
707.366	0.0270832
707.501	0.0276946
707.636	0.0270832
707.771	0.0273889
707.905	0.0277557
708.04	0.0277557
708.175	0.0276334
708.31	0.0272666
708.445	0.0272055
708.579	0.0272055
708.714	0.0279391
708.849	0.0272055
708.984	0.0275723
709.118	0.0271443
709.253	0.0273277
709.388	0.0270221
709.523	0.0275112
709.658	0.0281837
709.792	0.0278168
709.927	0.0273277
710.062	0.0288561
710.197	0.0262884
710.332	0.0264718
710.466	0.0272055
710.601	0.0273889
710.736	0.0272055
710.871	0.0270832
711.006	0.0275723
711.14	0.0281225
711.275	0.0273889
711.41	0.0275112
711.545	0.0267164
711.679	0.0270832
711.814	0.0278168
711.949	0.0283059
712.084	0.0277557
712.219	0.02745
712.353	0.0271443
712.488	0.0271443
712.623	0.0277557
712.758	0.0279391
712.892	0.0276946
713.027	0.0275112
713.162	0.0275112
713.297	0.0268387
713.432	0.0267775
713.566	0.0280614
713.701	0.027878
713.836	0.0276946
713.971	0.026533
714.105	0.0275112
714.24	0.0276334
714.375	0.0268998
714.51	0.0268998
714.645	0.0277557
714.779	0.0272666
714.914	0.0273889
715.049	0.0272666
715.184	0.0280614
715.318	0.0273889
715.453	0.0268998
715.588	0.0281837
715.723	0.0281837
715.858	0.0276334
715.992	0.026533
716.127	0.0280614
716.262	0.0276334
716.397	0.0276946
716.531	0.02745
716.666	0.0273889
716.801	0.0270221
716.936	0.0275112
717.07	0.0273889
717.205	0.0272666
717.34	0.0275112
717.475	0.0267775
717.61	0.02745
717.744	0.0277557
717.879	0.0275112
718.014	0.0284282
718.149	0.0270832
718.283	0.0281225
718.418	0.0262273
718.553	0.027878
718.688	0.0271443
718.822	0.0273889
718.957	0.02745
719.092	0.0267775
719.227	0.0281225
719.361	0.0276334
719.496	0.0272666
719.631	0.0280614
719.766	0.0270221
719.9	0.0275112
720.035	0.0267775
720.17	0.0273889
720.305	0.02745
720.44	0.0276946
720.574	0.0276334
720.709	0.0265941
720.844	0.0270221
720.979	0.0276334
721.113	0.0270832
721.248	0.0270221
721.383	0.02745
721.518	0.0275723
721.652	0.0273277
721.787	0.0272055
721.922	0.0272666
722.057	0.0272055
722.191	0.0269609
722.326	0.0272055
722.461	0.0277557
722.596	0.0275723
722.73	0.0276334
722.865	0.0275112
723	0.0268998
723.135	0.0281837
723.269	0.0280614
723.404	0.0266553
723.539	0.0267775
723.674	0.0269609
723.808	0.0278168
723.943	0.0276334
724.078	0.0273277
724.213	0.0286727
724.347	0.0273889
724.482	0.0262273
724.617	0.0272666
724.752	0.0266553
724.886	0.0275112
725.021	0.02745
725.156	0.0280002
725.291	0.0265941
725.425	0.0280002
725.56	0.0287339
725.695	0.0289173
725.829	0.0278168
725.964	0.0278168
726.099	0.0276334
726.234	0.027878
726.368	0.027878
726.503	0.0276334
726.638	0.0275112
726.773	0.0279391
726.907	0.0270832
727.042	0.0269609
727.177	0.0273889
727.312	0.0270832
727.446	0.027878
727.581	0.0283671
727.716	0.0275723
727.851	0.0268998
727.985	0.0277557
728.12	0.0273889
728.255	0.0270221
728.389	0.02745
728.524	0.0276946
728.659	0.0271443
728.794	0.0275723
728.928	0.0268387
729.063	0.0273277
729.198	0.0276334
729.333	0.0282448
729.467	0.0273277
729.602	0.0273889
729.737	0.0275723
729.872	0.0276334
730.006	0.0282448
730.141	0.0272055
730.276	0.0273277
730.41	0.0280614
730.545	0.0276334
730.68	0.02745
730.815	0.0275112
730.949	0.0284282
731.084	0.0275112
731.219	0.0275723
731.354	0.027878
731.488	0.0278168
731.623	0.0275723
731.758	0.0269609
731.892	0.0265941
732.027	0.0278168
732.162	0.0281837
732.297	0.0283671
732.431	0.0275112
732.566	0.0285505
732.701	0.0278168
732.835	0.0273889
732.97	0.0276946
733.105	0.0273889
733.24	0.0273889
733.374	0.0278168
733.509	0.0283671
733.644	0.0279391
733.779	0.0272666
733.913	0.0272666
734.048	0.0268387
734.183	0.0275723
734.317	0.0273277
734.452	0.02745
734.587	0.0273889
734.722	0.0276946
734.856	0.0268998
734.991	0.0279391
735.126	0.0270221
735.26	0.0277557
735.395	0.0276946
735.53	0.0271443
735.665	0.0273277
735.799	0.0270221
735.934	0.0277557
736.069	0.0272666
736.203	0.0278168
736.338	0.0270832
736.473	0.0278168
736.607	0.0270832
736.742	0.02745
736.877	0.0276334
737.012	0.0278168
737.146	0.0278168
737.281	0.027878
737.416	0.0273889
737.55	0.0278168
737.685	0.0270221
737.82	0.0273277
737.955	0.0281837
738.089	0.0273889
738.224	0.0267164
738.359	0.027878
738.493	0.0271443
738.628	0.02745
738.763	0.0275112
738.897	0.0277557
739.032	0.0268387
739.167	0.0265941
739.302	0.0271443
739.436	0.0262884
739.571	0.0275723
739.706	0.0262884
739.84	0.0270832
739.975	0.02745
740.11	0.0272666
740.244	0.0275112
740.379	0.0280614
740.514	0.0270221
740.649	0.0269609
740.783	0.0267775
740.918	0.0273277
741.053	0.0280002
741.187	0.0277557
741.322	0.0280614
741.457	0.0281225
741.591	0.0287339
741.726	0.0277557
741.861	0.0271443
741.996	0.0276946
742.13	0.0270832
742.265	0.0276334
742.4	0.0272055
742.534	0.0283671
742.669	0.0277557
742.804	0.0277557
742.938	0.0275112
743.073	0.0271443
743.208	0.0277557
743.342	0.0281225
743.477	0.0268387
743.612	0.0280614
743.747	0.0272055
743.881	0.0276946
744.016	0.0268998
744.151	0.0278168
744.285	0.0275112
744.42	0.0269609
744.555	0.0268998
744.689	0.0272055
744.824	0.0271443
744.959	0.0267775
745.093	0.0268998
745.228	0.0281225
745.363	0.0276946
745.497	0.0275112
745.632	0.0270221
745.767	0.0276334
745.901	0.0266553
746.036	0.0268387
746.171	0.0270221
746.305	0.0273889
746.44	0.0273889
746.575	0.0270221
746.71	0.0270832
746.844	0.0272055
746.979	0.0272055
747.114	0.0275723
747.248	0.02745
747.383	0.027878
747.518	0.0278168
747.652	0.0275112
747.787	0.0259828
747.922	0.0280002
748.056	0.0275112
748.191	0.0275112
748.326	0.0269609
748.46	0.0266553
748.595	0.0271443
748.73	0.0276334
748.864	0.0272055
748.999	0.0275112
749.134	0.0270832
749.268	0.0280002
749.403	0.0276334
749.538	0.02745
749.672	0.0270832
749.807	0.0273277
749.942	0.0272666
750.076	0.02745
750.211	0.0280002
750.346	0.027878
750.48	0.0272055
750.615	0.0277557
750.75	0.0276334
750.884	0.02745
751.019	0.0272666
751.154	0.0277557
751.288	0.0279391
751.423	0.0272666
751.558	0.0272666
751.692	0.0276334
751.827	0.0279391
751.962	0.0273889
752.096	0.0269609
752.231	0.0265941
752.366	0.0281837
752.5	0.0276334
752.635	0.0277557
752.77	0.0281837
752.904	0.0263496
753.039	0.02745
753.174	0.0271443
753.308	0.0268387
753.443	0.0268387
753.578	0.02745
753.712	0.0275112
753.847	0.0277557
753.982	0.0272055
754.116	0.027878
754.251	0.02745
754.386	0.0270221
754.52	0.026533
754.655	0.027878
754.79	0.0276946
754.924	0.0266553
755.059	0.0267775
755.194	0.0276334
755.328	0.0277557
755.463	0.0273277
755.597	0.0267164
755.732	0.0273277
755.867	0.0273889
756.001	0.027878
756.136	0.0276334
756.271	0.0275112
756.405	0.0275112
756.54	0.02745
756.675	0.0272666
756.809	0.0278168
756.944	0.02745
757.079	0.0267164
757.213	0.0271443
757.348	0.0270832
757.483	0.0275112
757.617	0.0275112
757.752	0.0272666
757.887	0.0276334
758.021	0.0276334
758.156	0.0278168
758.29	0.0281837
758.425	0.0268998
758.56	0.027878
758.694	0.02745
758.829	0.0275112
758.964	0.0270221
759.098	0.0276946
759.233	0.0277557
759.368	0.0270832
759.502	0.0279391
759.637	0.0262273
759.772	0.0276334
759.906	0.02745
760.041	0.0266553
760.175	0.0270221
760.31	0.0272055
760.445	0.0272666
760.579	0.0269609
760.714	0.0280614
760.849	0.0268387
760.983	0.0275723
761.118	0.0278168
761.253	0.0281225
761.387	0.0285505
761.522	0.027878
761.656	0.0273889
761.791	0.0268387
761.926	0.02745
762.06	0.0275112
762.195	0.0272055
762.33	0.0272055
762.464	0.0286116
762.599	0.0280614
762.733	0.0272666
762.868	0.0270832
763.003	0.0273277
763.137	0.0270832
763.272	0.027878
763.407	0.0273277
763.541	0.02745
763.676	0.0275723
763.811	0.0280002
763.945	0.0275723
764.08	0.0270832
764.214	0.0276946
764.349	0.0277557
764.484	0.0262884
764.618	0.0270221
764.753	0.0270832
764.888	0.0280614
765.022	0.0269609
765.157	0.02745
765.291	0.0272055
765.426	0.02745
765.561	0.0278168
765.695	0.0278168
765.83	0.02745
765.965	0.0276946
766.099	0.0278168
766.234	0.0264107
766.368	0.0276334
766.503	0.0270832
766.638	0.0280614
766.772	0.0267164
766.907	0.0279391
767.041	0.0280614
767.176	0.0268387
767.311	0.0268998
767.445	0.0276334
767.58	0.0269609
767.715	0.0269609
767.849	0.0267164
767.984	0.0268387
768.118	0.0275112
768.253	0.0272666
768.388	0.0276334
768.522	0.026533
768.657	0.0281225
768.791	0.0271443
768.926	0.0267164
769.061	0.0280614
769.195	0.0281225
769.33	0.02745
769.465	0.0281225
769.599	0.02745
769.734	0.0267775
769.868	0.0280002
770.003	0.0281225
770.138	0.0270221
770.272	0.0272055
770.407	0.0264718
770.541	0.0275112
770.676	0.026533
770.811	0.027878
770.945	0.026533
771.08	0.0272666
771.214	0.0270832
771.349	0.0279391
771.484	0.0275723
771.618	0.0269609
771.753	0.02745
771.887	0.0271443
772.022	0.0267164
772.157	0.0277557
772.291	0.0269609
772.426	0.0273889
772.56	0.0275112
772.695	0.0276334
772.83	0.0277557
772.964	0.0272055
773.099	0.0257994
773.233	0.0272666
773.368	0.0272666
773.503	0.0272666
773.637	0.0278168
773.772	0.0271443
773.906	0.02745
774.041	0.0267775
774.176	0.0276946
774.31	0.0287339
774.445	0.02745
774.579	0.0267775
774.714	0.0262884
774.849	0.0281837
774.983	0.0273277
775.118	0.0273889
775.252	0.0277557
775.387	0.0267775
775.522	0.0275112
775.656	0.0275112
775.791	0.0266553
775.925	0.0279391
776.06	0.0267775
776.195	0.0273889
776.329	0.0270221
776.464	0.0277557
776.598	0.0275112
776.733	0.0275723
776.868	0.0278168
777.002	0.0268387
777.137	0.0270832
777.271	0.0276334
777.406	0.0279391
777.54	0.0278168
777.675	0.0268998
777.81	0.0267775
777.944	0.0271443
778.079	0.0270832
778.213	0.0270221
778.348	0.02745
778.483	0.02745
778.617	0.027878
778.752	0.026533
778.886	0.0275723
779.021	0.0273889
779.155	0.0277557
779.29	0.0279391
779.425	0.0277557
779.559	0.0276334
779.694	0.0277557
779.828	0.0265941
779.963	0.0276334
780.098	0.0275112
780.232	0.02745
780.367	0.0268387
780.501	0.0283671
780.636	0.0272055
780.77	0.0273889
780.905	0.0270221
781.04	0.027878
781.174	0.0270221
781.309	0.0276334
781.443	0.0276946
781.578	0.0270832
781.712	0.0270832
781.847	0.0272666
781.982	0.02745
782.116	0.0266553
782.251	0.0276946
782.385	0.0279391
782.52	0.0268998
782.654	0.0275112
782.789	0.027878
782.924	0.0273277
783.058	0.0278168
783.193	0.0281225
783.327	0.0267775
783.462	0.0275723
783.596	0.0264107
783.731	0.0271443
783.866	0.0268387
784	0.0268387
784.135	0.0273277
784.269	0.0279391
784.404	0.0283671
784.538	0.0270832
784.673	0.027878
784.808	0.0281225
784.942	0.0273277
785.077	0.0285505
785.211	0.0266553
785.346	0.0276946
785.48	0.026533
785.615	0.0282448
785.75	0.0275112
785.884	0.0270832
786.019	0.0278168
786.153	0.0270832
786.288	0.0271443
786.422	0.0268998
786.557	0.0278168
786.691	0.0280614
786.826	0.0270221
786.961	0.0272055
787.095	0.0273889
787.23	0.0279391
787.364	0.0270221
787.499	0.0267164
787.633	0.0276946
787.768	0.0275723
787.902	0.0270221
788.037	0.0283671
788.172	0.027878
788.306	0.0267775
788.441	0.02745
788.575	0.0272055
788.71	0.027878
788.844	0.0276946
788.979	0.02745
789.113	0.02745
789.248	0.02745
789.383	0.0279391
789.517	0.0276334
789.652	0.0275112
789.786	0.0280002
789.921	0.0272055
790.055	0.0272666
790.19	0.0283059
790.324	0.0275112
790.459	0.02745
790.594	0.0277557
790.728	0.0280002
790.863	0.02745
790.997	0.02745
791.132	0.0275723
791.266	0.0265941
791.401	0.0276946
791.535	0.0277557
791.67	0.0270832
791.804	0.0277557
791.939	0.0278168
792.074	0.0275723
792.208	0.0273889
792.343	0.0273277
792.477	0.0270832
792.612	0.0280614
792.746	0.0271443
792.881	0.027878
793.015	0.0272666
793.15	0.0281837
793.284	0.0269609
793.419	0.0273277
793.553	0.0280002
793.688	0.0275723
793.823	0.0278168
793.957	0.0266553
794.092	0.0270832
794.226	0.0280002
794.361	0.0277557
794.495	0.0273277
794.63	0.0277557
794.764	0.0286116
794.899	0.0282448
795.033	0.0275112
795.168	0.0276334
795.302	0.0272055
795.437	0.0281225
795.572	0.0259828
795.706	0.0276334
795.841	0.0268998
795.975	0.0273889
796.11	0.0280614
796.244	0.0269609
796.379	0.027878
796.513	0.027878
796.648	0.0282448
796.782	0.0279391
796.917	0.0273889
797.051	0.0283671
797.186	0.0265941
797.32	0.0282448
797.455	0.027878
797.589	0.0276334
797.724	0.0279391
797.859	0.0282448
797.993	0.0275112
798.128	0.0276946
798.262	0.0271443
798.397	0.0283059
798.531	0.0272666
798.666	0.0279391
798.8	0.0280002
798.935	0.0278168
799.069	0.0280614
799.204	0.0277557
799.338	0.0280002
799.473	0.027878
799.607	0.0273277
799.742	0.0281225
799.876	0.0282448
800.011	0.0281225
800.145	0.0289173
800.28	0.0284893
800.414	0.0284282
800.549	0.0281225
800.683	0.0286116
800.818	0.0283059
800.953	0.0268387
801.087	0.0278168
801.222	0.0278168
801.356	0.0277557
801.491	0.0285505
801.625	0.0285505
801.76	0.029223
801.894	0.0287339
802.029	0.0286727
802.163	0.0283671
802.298	0.0289173
802.432	0.0293452
802.567	0.0281837
802.701	0.0283059
802.836	0.0290396
802.97	0.0295898
803.105	0.0303234
803.239	0.0284893
803.374	0.0294064
803.508	0.0295286
803.643	0.0294675
803.777	0.0293452
803.912	0.0299566
804.046	0.0305068
804.181	0.0296509
804.315	0.0307514
804.45	0.0313016
804.584	0.0300789
804.719	0.0315461
804.853	0.0305068
804.988	0.0306902
805.122	0.0321575
805.257	0.0314239
805.391	0.0327077
805.526	0.0336859
805.66	0.0331357
805.795	0.033747
805.929	0.0336859
806.064	0.0347252
806.198	0.0351531
806.333	0.0360702
806.467	0.0362536
806.602	0.0381488
806.736	0.0388213
806.871	0.0395549
807.005	0.0437122
807.14	0.046769
807.274	0.0677386
807.409	0.173748
807.543	0.245705
807.678	0.177783
807.812	0.099407
807.947	0.131014
808.081	0.161277
808.216	0.231888
808.35	0.495934
808.485	0.917283
808.619	0.986489
808.754	0.99945
808.888	1
809.023	0.994253
809.157	0.993336
809.292	0.986917
809.426	0.984349
809.561	0.977869
809.695	0.967292
809.83	0.960262
809.964	0.81433
810.099	0.635385
810.233	0.523751
810.368	0.548572
810.502	0.352143
810.637	0.131259
810.771	0.058018
810.906	0.0405942
811.04	0.0381488
811.175	0.0380265
811.309	0.0361925
811.444	0.0358256
811.578	0.0349086
811.713	0.0346641
811.847	0.0325243
811.982	0.0323409
812.116	0.03283
812.251	0.0327688
812.385	0.0316684
812.519	0.0327077
812.654	0.0316073
812.788	0.0316684
812.923	0.0314239
813.057	0.0302011
813.192	0.0309348
813.326	0.0305068
813.461	0.0300177
813.595	0.0302623
813.73	0.0294675
813.864	0.0298343
813.999	0.03014
814.133	0.028795
814.268	0.0296509
814.402	0.0292841
814.537	0.0283671
814.671	0.0290396
814.806	0.0298955
814.94	0.0284282
815.075	0.0283671
815.209	0.0289784
815.344	0.0286116
815.478	0.0283671
815.612	0.0286116
815.747	0.0284893
815.881	0.0275723
816.016	0.0282448
816.15	0.0287339
816.285	0.0289784
816.419	0.0286727
816.554	0.0286116
816.688	0.0284282
816.823	0.0276946
816.957	0.0282448
817.092	0.0281837
817.226	0.0281837
817.361	0.0280614
817.495	0.0276334
817.63	0.0287339
817.764	0.02745
817.898	0.0280614
818.033	0.0281837
818.167	0.0285505
818.302	0.0282448
818.436	0.0276334
818.571	0.0289784
818.705	0.0276946
818.84	0.0275723
818.974	0.0272055
819.109	0.0290396
819.243	0.02745
819.378	0.0273277
819.512	0.0277557
819.646	0.0273889
819.781	0.0284893
819.915	0.0279391
820.05	0.02745
820.184	0.0278168
820.319	0.0286116
820.453	0.0270832
820.588	0.0283059
820.722	0.0276946
820.857	0.027878
820.991	0.0279391
821.126	0.02745
821.26	0.0267775
821.394	0.0291007
821.529	0.02745
821.663	0.0272055
821.798	0.0273889
821.932	0.0280614
822.067	0.0284893
822.201	0.0280614
822.336	0.0277557
822.47	0.0278168
822.605	0.0276334
822.739	0.0283059
822.873	0.0272666
823.008	0.0279391
823.142	0.0283671
823.277	0.0262884
823.411	0.0280614
823.546	0.0278168
823.68	0.0276946
823.815	0.0267775
823.949	0.027878
824.083	0.0279391
824.218	0.0277557
824.352	0.0275723
824.487	0.02745
824.621	0.0271443
824.756	0.0275723
824.89	0.0270832
825.025	0.0270221
825.159	0.02745
825.293	0.0267775
825.428	0.0282448
825.562	0.0275723
825.697	0.0281225
825.831	0.0275112
825.966	0.0275112
826.1	0.0277557
826.235	0.02745
826.369	0.0283059
826.503	0.0268998
826.638	0.0282448
826.772	0.0271443
826.907	0.026533
827.041	0.0276334
827.176	0.0284893
827.31	0.0266553
827.445	0.0270832
827.579	0.0276946
827.713	0.0283671
827.848	0.0270832
827.982	0.0267164
828.117	0.0279391
828.251	0.0272055
828.386	0.0272666
828.52	0.0276334
828.654	0.02745
828.789	0.0270832
828.923	0.0270832
829.058	0.0278168
829.192	0.0269609
829.327	0.0270221
829.461	0.0267775
829.596	0.0275723
829.73	0.027878
829.864	0.0273889
829.999	0.0269609
830.133	0.0273277
830.268	0.0270221
830.402	0.0275723
830.537	0.0273277
830.671	0.0280002
830.805	0.027878
830.94	0.0275723
831.074	0.0282448
831.209	0.0273277
831.343	0.0269609
831.478	0.0273889
831.612	0.0276946
831.746	0.0273889
831.881	0.0276946
832.015	0.0276334
832.15	0.0270221
832.284	0.0270832
832.418	0.0279391
832.553	0.0272666
832.687	0.0277557
832.822	0.0266553
832.956	0.0272055
833.091	0.0278168
833.225	0.0277557
833.359	0.0272666
833.494	0.0272666
833.628	0.0265941
833.763	0.0264718
833.897	0.0273277
834.032	0.0273889
834.166	0.027878
834.3	0.0273889
834.435	0.0268387
834.569	0.0272055
834.704	0.0276946
834.838	0.02745
834.972	0.0281837
835.107	0.0276334
835.241	0.0270221
835.376	0.0275723
835.51	0.0268998
835.645	0.0273277
835.779	0.0267775
835.913	0.0278168
836.048	0.0272055
836.182	0.0275112
836.317	0.0276946
836.451	0.0268387
836.585	0.0272666
836.72	0.027878
836.854	0.0271443
836.989	0.0268387
837.123	0.0267164
837.257	0.02745
837.392	0.0277557
837.526	0.026533
837.661	0.0270832
837.795	0.0281837
837.929	0.0270221
838.064	0.0263496
838.198	0.0265941
838.333	0.0278168
838.467	0.0270832
838.602	0.0264718
838.736	0.0271443
838.87	0.0268387
839.005	0.0272666
839.139	0.0270221
839.274	0.0273889
839.408	0.027878
839.542	0.0270832
839.677	0.0282448
839.811	0.0271443
839.946	0.0270221
840.08	0.02745
840.214	0.0269609
840.349	0.0266553
840.483	0.0273277
840.618	0.0276334
840.752	0.0272055
840.886	0.0278168
841.021	0.0269609
841.155	0.0283671
841.29	0.0271443
841.424	0.0271443
841.558	0.0277557
841.693	0.0280614
841.827	0.0283671
841.961	0.0275723
842.096	0.0276946
842.23	0.0275723
842.365	0.0268387
842.499	0.02745
842.633	0.02745
842.768	0.0285505
842.902	0.0272055
843.037	0.0278168
843.171	0.0280614
843.305	0.0264718
843.44	0.0277557
843.574	0.0267164
843.709	0.0286727
843.843	0.0273277
843.977	0.0275112
844.112	0.0269609
844.246	0.027878
844.381	0.0275112
844.515	0.0270221
844.649	0.0275112
844.784	0.0276334
844.918	0.0269609
845.052	0.0269609
845.187	0.0272666
845.321	0.0280002
845.456	0.0279391
845.59	0.0270832
845.724	0.0270832
845.859	0.0263496
845.993	0.0282448
846.128	0.0277557
846.262	0.0270832
846.396	0.0280002
846.531	0.0275112
846.665	0.0278168
846.799	0.0281837
846.934	0.0270832
847.068	0.0277557
847.203	0.0270832
847.337	0.0275112
847.471	0.027878
847.606	0.0263496
847.74	0.0273889
847.874	0.0278168
848.009	0.0275723
848.143	0.0273889
848.278	0.0280614
848.412	0.0267775
848.546	0.0273889
848.681	0.0278168
848.815	0.0281837
848.949	0.0276334
849.084	0.0273277
849.218	0.0270832
849.353	0.0273277
849.487	0.0272055
849.621	0.0273277
849.756	0.0275723
849.89	0.0271443
850.024	0.0267164
850.159	0.0280614
850.293	0.0273889
850.428	0.027878
850.562	0.0279391
850.696	0.0271443
850.831	0.0268998
850.965	0.0272666
851.099	0.0271443
851.234	0.0282448
851.368	0.0270221
851.502	0.0275723
851.637	0.0271443
851.771	0.0276946
851.906	0.02745
852.04	0.0275112
852.174	0.0277557
852.309	0.0268998
852.443	0.0272666
852.577	0.0283671
852.712	0.0280002
852.846	0.0269609
852.98	0.02745
853.115	0.0273889
853.249	0.0277557
853.384	0.0269609
853.518	0.0276946
853.652	0.0278168
853.787	0.0272055
853.921	0.02745
854.055	0.0275112
854.19	0.0275112
854.324	0.0281225
854.458	0.0276334
854.593	0.0281837
854.727	0.0276334
854.861	0.027878
854.996	0.0268387
855.13	0.0271443
855.265	0.0270221
855.399	0.0270832
855.533	0.0269609
855.668	0.0276946
855.802	0.0276946
855.936	0.0268387
856.071	0.0285505
856.205	0.0270832
856.339	0.0273277
856.474	0.0276334
856.608	0.02745
856.742	0.0281225
856.877	0.0272666
857.011	0.0278168
857.145	0.0270221
857.28	0.0270221
857.414	0.027878
857.549	0.0275723
857.683	0.0264718
857.817	0.0272666
857.952	0.0267775
858.086	0.0267775
858.22	0.0271443
858.355	0.0264718
858.489	0.0273889
858.623	0.0279391
858.758	0.0278168
858.892	0.02745
859.026	0.0276334
859.161	0.0270832
859.295	0.02745
859.429	0.0278168
859.564	0.0271443
859.698	0.0275723
859.832	0.0270832
859.967	0.0268998
860.101	0.0281837
860.235	0.0275112
860.37	0.0270832
860.504	0.0281837
860.638	0.0275723
860.773	0.0273889
860.907	0.0275723
861.041	0.0272055
861.176	0.0273889
861.31	0.0273889
861.444	0.0278168
861.579	0.0265941
861.713	0.027878
861.847	0.0275112
861.982	0.02745
862.116	0.0279391
862.25	0.0279391
862.385	0.0280002
862.519	0.0273277
862.653	0.02745
862.788	0.0268387
862.922	0.0268998
863.056	0.0268387
863.191	0.027878
863.325	0.0276946
863.459	0.0267775
863.594	0.0271443
863.728	0.0273277
863.862	0.0276334
863.997	0.0275112
864.131	0.0282448
864.265	0.0277557
864.4	0.0269609
864.534	0.0276334
864.668	0.0281225
864.803	0.0277557
864.937	0.0270221
865.071	0.0272055
865.206	0.0281837
865.34	0.0278168
865.474	0.0276334
865.609	0.0273277
865.743	0.0268998
865.877	0.0273277
866.012	0.0272055
866.146	0.0271443
866.28	0.0273889
866.415	0.0275723
866.549	0.0276334
866.683	0.0272055
866.818	0.0277557
866.952	0.0279391
867.086	0.0272666
867.221	0.0275723
867.355	0.0270832
867.489	0.0276946
867.623	0.0264718
867.758	0.0269609
867.892	0.0280002
868.026	0.0276946
868.161	0.027878
868.295	0.027878
868.429	0.0277557
868.564	0.0275723
868.698	0.0264107
868.832	0.0269609
868.967	0.0272666
869.101	0.0279391
869.235	0.0270832
869.37	0.0273889
869.504	0.0272666
869.638	0.0281837
869.773	0.0269609
869.907	0.0277557
870.041	0.0272055
870.175	0.0278168
870.31	0.0281225
870.444	0.0276946
870.578	0.0275112
870.713	0.0270832
870.847	0.0272055
870.981	0.0272666
871.116	0.0270221
871.25	0.02745
871.384	0.0276946
871.519	0.0269609
871.653	0.0276946
871.787	0.0269609
871.921	0.0281225
872.056	0.0276334
872.19	0.0272666
872.324	0.0270832
872.459	0.0278168
872.593	0.0273889
872.727	0.0264107
872.862	0.0270221
872.996	0.0279391
873.13	0.0275723
873.264	0.0275112
873.399	0.0275723
873.533	0.0276946
873.667	0.0263496
873.802	0.0268387
873.936	0.0268387
874.07	0.0268387
874.205	0.0276334
874.339	0.0267164
874.473	0.0269609
874.607	0.0275112
874.742	0.0275112
874.876	0.0272666
875.01	0.0273277
875.145	0.0276334
875.279	0.0275723
875.413	0.0282448
875.548	0.0268998
875.682	0.0276946
875.816	0.026533
875.95	0.027878
876.085	0.0262273
876.219	0.0278168
876.353	0.0275723
876.488	0.0277557
876.622	0.0279391
876.756	0.0281837
876.89	0.0273889
877.025	0.0277557
877.159	0.0277557
877.293	0.0276334
877.428	0.0272666
877.562	0.0278168
877.696	0.0270221
877.83	0.0273889
877.965	0.0267775
878.099	0.0275112
878.233	0.0267775
878.368	0.0276334
878.502	0.0280614
878.636	0.0277557
878.77	0.0280002
878.905	0.0272666
879.039	0.0276946
879.173	0.0275112
879.308	0.02745
879.442	0.0272055
879.576	0.0273277
879.71	0.0271443
879.845	0.0275723
879.979	0.0273889
880.113	0.0279391
880.248	0.0265941
880.382	0.0271443
880.516	0.0278168
880.65	0.0276946
880.785	0.0273277
880.919	0.0270832
881.053	0.0272055
881.188	0.0265941
881.322	0.0279391
881.456	0.0259216
881.59	0.027878
881.725	0.0271443
881.859	0.0267164
881.993	0.0268387
882.127	0.0273277
882.262	0.0277557
882.396	0.0276334
882.53	0.0267775
882.665	0.0281837
882.799	0.0276334
882.933	0.0272055
883.067	0.0270221
883.202	0.0276946
883.336	0.0276334
883.47	0.027878
883.604	0.0267775
883.739	0.0284282
883.873	0.0266553
884.007	0.0271443
884.142	0.0267164
884.276	0.0280002
884.41	0.0273889
884.544	0.02745
884.679	0.0277557
884.813	0.0273277
884.947	0.0267775
885.081	0.0276334
885.216	0.02745
885.35	0.0283059
885.484	0.0276334
885.618	0.026533
885.753	0.0276334
885.887	0.0273277
886.021	0.0277557
886.155	0.0267775
886.29	0.0273889
886.424	0.0272055
886.558	0.0275112
886.693	0.0278168
886.827	0.027878
886.961	0.02745
887.095	0.0266553
887.23	0.0271443
887.364	0.0272666
887.498	0.0270221
887.632	0.0269609
887.767	0.0269609
887.901	0.0267164
888.035	0.0267775
888.169	0.0269609
888.304	0.0273889
888.438	0.0264718
888.572	0.0276946
888.706	0.0272666
888.841	0.0275112
888.975	0.0273889
889.109	0.027878
889.243	0.0269609
889.378	0.027878
889.512	0.0269609
889.646	0.0272666
889.78	0.0279391
889.915	0.02745
890.049	0.0272666
890.183	0.0282448
890.317	0.0276334
890.452	0.0275723
890.586	0.0269609
890.72	0.0268998
890.854	0.0280002
890.989	0.0268998
891.123	0.0276334
891.257	0.0278168
891.391	0.0269609
891.526	0.0269609
891.66	0.026105
891.794	0.0284893
891.928	0.0271443
892.063	0.0270221
892.197	0.0275723
892.331	0.0266553
892.465	0.0275112
892.6	0.0277557
892.734	0.0276334
892.868	0.0276334
893.002	0.0275112
893.137	0.0271443
893.271	0.0270221
893.405	0.02745
893.539	0.0272055
893.674	0.0275723
893.808	0.0278168
893.942	0.0270221
894.076	0.0275723
894.21	0.0272666
894.345	0.0273277
894.479	0.0282448
894.613	0.0273277
894.747	0.0273889
894.882	0.0270832
895.016	0.0287339
895.15	0.0262884
895.284	0.0262273
895.419	0.0275723
895.553	0.0267775
895.687	0.0275112
895.821	0.0273889
895.956	0.0273277
896.09	0.0273277
896.224	0.0270832
896.358	0.0276946
896.492	0.0272666
896.627	0.0272055
896.761	0.0275723
896.895	0.0280002
897.029	0.0279391
897.164	0.0277557
897.298	0.0281837
897.432	0.02745
897.566	0.0272666
897.701	0.0275723
897.835	0.0271443
897.969	0.0284282
898.103	0.0262273
898.237	0.0276334
898.372	0.02745
898.506	0.0268387
898.64	0.0276946
898.774	0.02745
898.909	0.0277557
899.043	0.0275112
899.177	0.0279391
899.311	0.02745
899.445	0.0276946
899.58	0.0278168
899.714	0.0268387
899.848	0.0278168
899.982	0.0276334
900.117	0.0273277
900.251	0.0276334
900.385	0.0275112
900.519	0.0271443
900.653	0.0265941
900.788	0.0273889
900.922	0.0273277
901.056	0.0267775
901.19	0.0270832
901.325	0.0272055
901.459	0.0268998
901.593	0.0270221
901.727	0.0275723
901.861	0.02745
901.996	0.0277557
902.13	0.0273889
902.264	0.0268387
902.398	0.0281225
902.532	0.0272055
902.667	0.0275723
902.801	0.026533
902.935	0.0270832
903.069	0.0267775
903.204	0.0268387
903.338	0.0272055
903.472	0.0271443
903.606	0.0270832
903.74	0.0266553
903.875	0.0268998
904.009	0.0272055
904.143	0.0279391
904.277	0.0276946
904.411	0.0273889
904.546	0.0277557
904.68	0.0272666
904.814	0.0270221
904.948	0.0280002
905.082	0.0267164
905.217	0.0277557
905.351	0.0272666
905.485	0.0276334
905.619	0.0270221
905.753	0.0272666
905.888	0.0273277
906.022	0.0279391
906.156	0.0265941
906.29	0.0275723
906.424	0.0273277
906.559	0.0272055
906.693	0.0284282
906.827	0.0273277
906.961	0.0272666
907.095	0.0272666
907.23	0.0275723
907.364	0.027878
907.498	0.0277557
907.632	0.0276946
907.766	0.0275112
907.901	0.02745
908.035	0.0280614
908.169	0.0270221
908.303	0.0278168
908.437	0.0275723
908.572	0.0275723
908.706	0.0291618
908.84	0.0276334
908.974	0.0284893
909.108	0.0272055
909.243	0.0276334
909.377	0.0272666
909.511	0.0272666
909.645	0.0273277
909.779	0.0280614
909.914	0.0275723
910.048	0.0268998
910.182	0.02745
910.316	0.0266553
910.45	0.0269609
910.585	0.0275112
910.719	0.0272666
910.853	0.0276334
910.987	0.0272055
911.121	0.0281225
911.255	0.0270221
911.39	0.0273889
911.524	0.0268998
911.658	0.0280614
911.792	0.0264718
911.926	0.0273889
912.061	0.027878
912.195	0.0272666
912.329	0.0275723
912.463	0.0270221
912.597	0.0268998
912.732	0.0268998
912.866	0.0277557
913	0.0270832
913.134	0.0267775
913.268	0.0271443
913.402	0.0273277
913.537	0.0276334
913.671	0.0273889
913.805	0.026533
913.939	0.0266553
914.073	0.0263496
914.208	0.0273277
914.342	0.0267775
914.476	0.0275112
914.61	0.0275723
914.744	0.0272666
914.878	0.027878
915.013	0.0275112
915.147	0.0269609
915.281	0.0277557
915.415	0.0278168
915.549	0.0266553
915.683	0.0267775
915.818	0.0279391
915.952	0.0275723
916.086	0.0273277
916.22	0.0277557
916.354	0.0272666
916.488	0.0273277
916.623	0.0268387
916.757	0.0276946
916.891	0.0269609
917.025	0.0270221
917.159	0.0272666
917.293	0.0267775
917.428	0.0275112
917.562	0.0265941
917.696	0.0266553
917.83	0.0273889
917.964	0.0273889
918.098	0.0277557
918.233	0.0273889
918.367	0.02745
918.501	0.0282448
918.635	0.0273277
918.769	0.0282448
918.903	0.0273889
919.038	0.0271443
919.172	0.0276946
919.306	0.0262273
919.44	0.0273889
919.574	0.0271443
919.708	0.0283671
919.843	0.0279391
919.977	0.0271443
920.111	0.0269609
920.245	0.0275112
920.379	0.0273889
920.513	0.027878
920.648	0.0276946
920.782	0.0268998
920.916	0.0268998
921.05	0.0275723
921.184	0.0275112
921.318	0.0275112
921.453	0.0278168
921.587	0.0273889
921.721	0.0270832
921.855	0.0268998
921.989	0.0273889
922.123	0.0273277
922.257	0.0275723
922.392	0.0273889
922.526	0.0272666
922.66	0.0275723
922.794	0.0276334
922.928	0.0268387
923.062	0.0270221
923.197	0.02745
923.331	0.0268387
923.465	0.0272666
923.599	0.0275723
923.733	0.0268998
923.867	0.0273277
924.001	0.0280614
924.136	0.0268998
924.27	0.0278168
924.404	0.0272055
924.538	0.0278168
924.672	0.0273277
924.806	0.0270832
924.94	0.02745
925.075	0.0273277
925.209	0.0268998
925.343	0.0272055
925.477	0.0269609
925.611	0.0263496
925.745	0.0273889
925.879	0.0267164
926.014	0.0273889
926.148	0.0273277
926.282	0.0264718
926.416	0.0276334
926.55	0.0275112
926.684	0.0269609
926.818	0.0276946
926.953	0.0270832
927.087	0.0270221
927.221	0.0280002
927.355	0.0282448
927.489	0.0267164
927.623	0.0276334
927.757	0.0275723
927.892	0.0270832
928.026	0.0272055
928.16	0.0275112
928.294	0.0275112
928.428	0.0273889
928.562	0.02745
928.696	0.0275112
928.831	0.0269609
928.965	0.0277557
929.099	0.0271443
929.233	0.026533
929.367	0.0270221
929.501	0.0281225
929.635	0.0275112
929.769	0.0273889
929.904	0.0273889
930.038	0.0271443
930.172	0.0275112
930.306	0.0270832
930.44	0.0269609
930.574	0.0280614
930.708	0.0266553
930.843	0.0273277
930.977	0.02745
931.111	0.0266553
931.245	0.0275723
931.379	0.0270221
931.513	0.0275723
931.647	0.0273277
931.781	0.0269609
931.916	0.0273889
932.05	0.0263496
932.184	0.0264107
932.318	0.0273277
932.452	0.0275723
932.586	0.0272666
932.72	0.0283059
932.854	0.0272055
932.989	0.0282448
933.123	0.0273889
933.257	0.027878
933.391	0.0271443
933.525	0.0276334
933.659	0.0267164
933.793	0.0270221
933.927	0.0265941
934.061	0.027878
934.196	0.0276334
934.33	0.0267164
934.464	0.0281225
934.598	0.0269609
934.732	0.028795
934.866	0.0267164
935	0.0272055
935.134	0.0273889
935.269	0.0273889
935.403	0.0268998
935.537	0.0277557
935.671	0.0272666
935.805	0.0281225
935.939	0.0280002
936.073	0.0276946
936.207	0.0273889
936.341	0.0271443
936.476	0.0269609
936.61	0.0270221
936.744	0.0276946
936.878	0.0271443
937.012	0.0268998
937.146	0.0276334
937.28	0.0269609
937.414	0.0284282
937.548	0.0270221
937.683	0.0268998
937.817	0.0283059
937.951	0.0270832
938.085	0.02745
938.219	0.0281837
938.353	0.0267775
938.487	0.0275112
938.621	0.0275112
938.755	0.0281837
938.889	0.0273889
939.024	0.0269609
939.158	0.0271443
939.292	0.0272055
939.426	0.02745
939.56	0.0272666
939.694	0.0278168
939.828	0.0269609
939.962	0.0268387
940.096	0.0284282
940.231	0.0277557
940.365	0.0265941
940.499	0.0276946
940.633	0.02745
940.767	0.0275112
940.901	0.027878
941.035	0.02745
941.169	0.0277557
941.303	0.0272055
941.437	0.0273889
941.571	0.0280614
941.706	0.0275112
941.84	0.0276334
941.974	0.0278168
942.108	0.0278168
942.242	0.0273277
942.376	0.0272055
942.51	0.0272055
942.644	0.027878
942.778	0.0272666
942.912	0.0275112
943.047	0.0284282
943.181	0.027878
943.315	0.0276334
943.449	0.0277557
943.583	0.026533
943.717	0.0275112
943.851	0.02745
943.985	0.0266553
944.119	0.0272666
944.253	0.0276334
944.387	0.0275723
944.522	0.0268387
944.656	0.0276946
944.79	0.0275112
944.924	0.0271443
945.058	0.0267775
945.192	0.0266553
945.326	0.0270832
945.46	0.0272666
945.594	0.0273889
945.728	0.0280002
945.862	0.0280614
945.996	0.0270832
946.131	0.0273889
946.265	0.0276334
946.399	0.0271443
946.533	0.0277557
946.667	0.0267775
946.801	0.0275723
946.935	0.0273889
947.069	0.0264718
947.203	0.0268998
947.337	0.0270221
947.471	0.0270832
947.605	0.0269609
947.739	0.0279391
947.874	0.0266553
948.008	0.0273277
948.142	0.0267775
948.276	0.0272666
948.41	0.0268387
948.544	0.0275723
948.678	0.0265941
948.812	0.0268998
948.946	0.0276334
949.08	0.0267164
949.214	0.02745
949.348	0.0275723
949.482	0.0275112
949.617	0.0275723
949.751	0.0273277
949.885	0.0276334
950.019	0.0281225
950.153	0.027878
950.287	0.0273277
950.421	0.0272055
950.555	0.0270832
950.689	0.0268998
950.823	0.0276946
950.957	0.0270832
951.091	0.0271443
951.225	0.0272055
951.359	0.0270221
951.493	0.0272055
951.628	0.0267164
951.762	0.027878
951.896	0.0264718
952.03	0.0273277
952.164	0.0276946
952.298	0.0273277
952.432	0.0266553
952.566	0.0266553
952.7	0.0270832
952.834	0.02745
952.968	0.0278168
953.102	0.0269609
953.236	0.0282448
953.37	0.0272055
953.504	0.027878
953.639	0.0270832
953.773	0.0269609
953.907	0.0279391
954.041	0.0275112
954.175	0.0277557
954.309	0.0268387
954.443	0.0275723
954.577	0.0272666
954.711	0.0275112
954.845	0.02745
954.979	0.0273889
955.113	0.0276946
955.247	0.0267775
955.381	0.0272666
955.515	0.0275112
955.649	0.0280002
955.783	0.0271443
955.917	0.0275112
956.052	0.0270832
956.186	0.0262273
956.32	0.0278168
956.454	0.0272055
956.588	0.0280614
956.722	0.0270832
956.856	0.02745
956.99	0.02745
957.124	0.0275112
957.258	0.0261662
957.392	0.0267775
957.526	0.0268387
957.66	0.0269609
957.794	0.0273889
957.928	0.0265941
958.062	0.02745
958.196	0.0268998
958.33	0.0272666
958.464	0.0278168
958.598	0.0277557
958.733	0.0264107
958.867	0.0273277
959.001	0.0270832
959.135	0.0270832
959.269	0.0275112
959.403	0.02745
959.537	0.0280002
959.671	0.0280002
959.805	0.0276946
959.939	0.0279391
960.073	0.0272666
960.207	0.0279391
960.341	0.027878
960.475	0.0275112
960.609	0.02745
960.743	0.0267164
960.877	0.0265941
961.011	0.0268998
961.145	0.0265941
961.279	0.0263496
961.413	0.0270832
961.547	0.0275112
961.681	0.027878
961.815	0.0273277
961.949	0.0279391
962.083	0.0266553
962.218	0.0273277
962.352	0.0280002
962.486	0.0272055
962.62	0.0280614
962.754	0.0273277
962.888	0.0270221
963.022	0.0269609
963.156	0.0277557
963.29	0.0275112
963.424	0.0267164
963.558	0.0269609
963.692	0.02745
963.826	0.027878
963.96	0.0278168
964.094	0.0281837
964.228	0.0272666
964.362	0.027878
964.496	0.0276946
964.63	0.0271443
964.764	0.0262273
964.898	0.0276946
965.032	0.0285505
965.166	0.02745
965.3	0.027878
965.434	0.0269609
965.568	0.0272055
965.702	0.0275112
965.836	0.0267775
965.97	0.0267775
966.104	0.0281225
966.238	0.0271443
966.372	0.0277557
966.506	0.0277557
966.64	0.0263496
966.774	0.0273277
966.908	0.0276334
967.043	0.0275112
967.177	0.027878
967.311	0.026533
967.445	0.0271443
967.579	0.0267164
967.713	0.0277557
967.847	0.0279391
967.981	0.0272055
968.115	0.0271443
968.249	0.0267775
968.383	0.0264107
968.517	0.0272666
968.651	0.0284893
968.785	0.0267775
968.919	0.0276334
969.053	0.027878
969.187	0.0280614
969.321	0.0266553
969.455	0.0277557
969.589	0.0273889
969.723	0.0267775
969.857	0.0275112
969.991	0.0272055
970.125	0.0272666
970.259	0.0275723
970.393	0.0266553
970.527	0.0267164
970.661	0.02745
970.795	0.0276334
970.929	0.0271443
971.063	0.0275112
971.197	0.0277557
971.331	0.0272666
971.465	0.0272055
971.599	0.0279391
971.733	0.0276946
971.867	0.0268998
972.001	0.02745
972.135	0.0272055
972.269	0.0272055
972.403	0.0280002
972.537	0.0264718
972.671	0.0264718
972.805	0.0279391
972.939	0.0280614
973.073	0.0272666
973.207	0.0270221
973.341	0.0275723
973.475	0.0268998
973.609	0.0276946
973.743	0.0270832
973.877	0.0271443
974.011	0.0277557
974.145	0.0279391
974.279	0.02745
974.413	0.0272666
974.547	0.0270221
974.681	0.0280614
974.815	0.0275112
974.949	0.0264718
975.083	0.0268998
975.217	0.0268387
975.351	0.0271443
975.485	0.0277557
975.619	0.02745
975.753	0.0273889
975.887	0.0272055
976.021	0.0277557
976.155	0.0275723
976.289	0.0280614
976.423	0.0266553
976.557	0.0280614
976.691	0.0272666
976.825	0.0269609
976.959	0.0281225
977.093	0.0275112
977.227	0.0268998
977.361	0.0277557
977.495	0.0281225
977.629	0.0270832
977.763	0.0263496
977.897	0.0276334
978.031	0.0267775
978.165	0.0263496
978.299	0.0279391
978.433	0.027878
978.567	0.0270832
978.701	0.0280002
978.835	0.0285505
978.969	0.0275723
979.103	0.0264107
979.237	0.0271443
979.371	0.02745
979.505	0.0275723
979.639	0.0273889
979.773	0.0268998
979.907	0.0273889
980.041	0.0286727
980.175	0.0275723
980.308	0.0280002
980.442	0.0275112
980.576	0.0268998
980.71	0.0275112
980.844	0.0277557
980.978	0.0258605
981.112	0.0276334
981.246	0.027878
981.38	0.0275723
981.514	0.0275723
981.648	0.0276334
981.782	0.0265941
981.916	0.0282448
982.05	0.027878
982.184	0.0279391
982.318	0.0282448
982.452	0.0264107
982.586	0.0273277
982.72	0.0273277
982.854	0.0269609
982.988	0.0275112
983.122	0.0270221
983.256	0.0279391
983.39	0.0276946
983.524	0.0270832
983.658	0.0281225
983.792	0.0273277
983.926	0.0283059
984.06	0.0280002
984.194	0.0283059
984.328	0.0275112
984.462	0.0269609
984.596	0.0272055
984.73	0.0271443
984.864	0.0281225
984.998	0.0276334
985.132	0.0264718
985.265	0.0264718
985.399	0.0281225
985.533	0.0263496
985.667	0.0277557
985.801	0.0270832
985.935	0.029223
986.069	0.0275723
986.203	0.0275112
986.337	0.0269609
986.471	0.0264718
986.605	0.0275112
986.739	0.0284893
986.873	0.0267164
987.007	0.0273277
987.141	0.027878
987.275	0.0276334
987.409	0.0270832
987.543	0.0278168
987.677	0.0270832
987.811	0.0267775
987.945	0.0268387
988.079	0.0276946
988.213	0.0275112
988.347	0.0276334
988.481	0.0273277
988.614	0.0277557
988.748	0.0272666
988.882	0.0270832
989.016	0.0272666
989.15	0.02745
989.284	0.0275723
989.418	0.02745
989.552	0.0273889
989.686	0.0279391
989.82	0.0276946
989.954	0.0264107
990.088	0.02745
990.222	0.0285505
990.356	0.0276334
990.49	0.0275112
990.624	0.0275112
990.758	0.0273889
990.892	0.0281837
991.026	0.0273889
991.16	0.0280614
991.294	0.0280614
991.427	0.0270221
991.561	0.0281225
991.695	0.0275112
991.829	0.0279391
991.963	0.0276334
992.097	0.02745
992.231	0.0276946
992.365	0.0272055
992.499	0.0277557
992.633	0.0270832
992.767	0.0270832
992.901	0.0273889
993.035	0.0273277
993.169	0.027878
993.303	0.0271443
993.437	0.0266553
993.571	0.0271443
993.704	0.0268998
993.838	0.0272666
993.972	0.0270221
994.106	0.0269609
994.24	0.0270221
994.374	0.0270832
994.508	0.0281225
994.642	0.0284893
994.776	0.0273277
994.91	0.02745
995.044	0.02745
995.178	0.0276946
995.312	0.0276946
995.446	0.0280002
995.58	0.027878
995.714	0.0281225
995.847	0.0276334
995.981	0.026533
996.115	0.0265941
996.249	0.027878
996.383	0.0271443
996.517	0.0276334
996.651	0.0275112
996.785	0.02745
996.919	0.0275723
997.053	0.0269609
997.187	0.026533
997.321	0.02745
997.455	0.0270221
997.589	0.0270221
997.722	0.027878
997.856	0.0272666
997.99	0.0276334
998.124	0.0277557
998.258	0.0283059
998.392	0.02745
998.526	0.0282448
998.66	0.0270221
998.794	0.0276946
998.928	0.0269609
999.062	0.0275723
999.196	0.0267775
999.33	0.0267775
999.464	0.0272055
999.597	0.0272055
999.731	0.0283671
999.865	0.0276946
999.999	0.0281837
1000.13	0.0284282
1000.27	0.0282448
1000.4	0.02745
1000.53	0.0272055
1000.67	0.0275112
1000.8	0.0279391
1000.94	0.0272666
1001.07	0.0273889
1001.2	0.0280002
1001.34	0.0263496
1001.47	0.0264718
1001.61	0.0273889
1001.74	0.0273277
1001.87	0.0272666
1002.01	0.0283059
1002.14	0.0280002
1002.28	0.0281225
1002.41	0.0270832
1002.54	0.0278168
1002.68	0.0272055
1002.81	0.0273889
1002.95	0.02745
1003.08	0.0273277
1003.21	0.0273277
1003.35	0.0271443
1003.48	0.0272666
1003.61	0.0270832
1003.75	0.0271443
1003.88	0.0273277
1004.02	0.0273889
1004.15	0.0272055
1004.28	0.0280002
1004.42	0.0272055
1004.55	0.0275723
1004.69	0.0272666
1004.82	0.0280002
1004.95	0.0281225
1005.09	0.0272666
1005.22	0.0272055
1005.36	0.0275723
1005.49	0.0272666
1005.62	0.0276946
1005.76	0.0270221
1005.89	0.02745
1006.03	0.0272055
1006.16	0.0266553
1006.29	0.0271443
1006.43	0.0272666
1006.56	0.0276334
1006.69	0.0270832
1006.83	0.0273889
1006.96	0.0273277
1007.1	0.0270832
1007.23	0.0275723
1007.36	0.0272666
1007.5	0.0266553
1007.63	0.0273277
1007.77	0.0283671
1007.9	0.02745
1008.03	0.0270832
1008.17	0.0270832
1008.3	0.0270832
1008.44	0.0273277
1008.57	0.0277557
1008.7	0.0280002
1008.84	0.0270832
1008.97	0.0270221
1009.1	0.0276334
1009.24	0.0278168
1009.37	0.0269609
1009.51	0.0277557
1009.64	0.0272055
1009.77	0.0278168
1009.91	0.0279391
1010.04	0.02745
1010.18	0.0278168
1010.31	0.0270832
1010.44	0.0275723
1010.58	0.0281225
1010.71	0.0281225
1010.85	0.0270832
1010.98	0.0268998
1011.11	0.0264718
1011.25	0.0275112
1011.38	0.0264718
1011.51	0.027878
1011.65	0.0276946
1011.78	0.0268387
1011.92	0.0276334
1012.05	0.0270221
1012.18	0.0281837
1012.32	0.0275112
1012.45	0.0282448
1012.59	0.0276334
1012.72	0.0276946
1012.85	0.0277557
1012.99	0.0281225
1013.12	0.0272666
1013.26	0.0280614
1013.39	0.0273277
1013.52	0.0275723
1013.66	0.0273277
1013.79	0.0279391
1013.92	0.0270832
1014.06	0.0268998
1014.19	0.0273889
1014.33	0.02745
1014.46	0.0277557
1014.59	0.0275723
1014.73	0.0277557
1014.86	0.02745
1015	0.0272055
1015.13	0.02745
1015.26	0.0273277
1015.4	0.0269609
1015.53	0.02745
1015.67	0.0272666
1015.8	0.0268387
1015.93	0.0273277
1016.07	0.0270221
1016.2	0.0277557
1016.33	0.0268998
1016.47	0.0275723
1016.6	0.0268998
1016.74	0.0268998
1016.87	0.0270832
1017	0.0269609
1017.14	0.0275112
1017.27	0.0276334
1017.41	0.0272055
1017.54	0.0270832
1017.67	0.0275112
1017.81	0.0272666
1017.94	0.0271443
1018.07	0.0276946
1018.21	0.0271443
1018.34	0.0272666
1018.48	0.0279391
1018.61	0.0277557
1018.74	0.0283059
1018.88	0.0273889
1019.01	0.0275112
1019.15	0.0270832
1019.28	0.0269609
1019.41	0.0263496
1019.55	0.0279391
1019.68	0.0270832
1019.82	0.0272055
1019.95	0.0269609
1020.08	0.0277557
1020.22	0.02745
1020.35	0.028795
1020.48	0.0275723
1020.62	0.0279391
1020.75	0.0281225
1020.89	0.0272055
1021.02	0.0273889
1021.15	0.0281225
1021.29	0.0280614
1021.42	0.0270832
1021.56	0.0273277
1021.69	0.0276946
1021.82	0.0267164
1021.96	0.0278168
1022.09	0.026533
1022.22	0.0270832
1022.36	0.0273889
1022.49	0.0275112
1022.63	0.0272666
1022.76	0.0268387
1022.89	0.0282448
1023.03	0.0268998
1023.16	0.0267775
1023.3	0.0275112
1023.43	0.0276946
1023.56	0.0270221
1023.7	0.0278168
1023.83	0.0272666
1023.96	0.0275723
1024.1	0.0276334
1024.23	0.0271443
1024.37	0.0267775
1024.5	0.0268998
1024.63	0.0268998
1024.77	0.0275723
1024.9	0.0272055
1025.04	0.0275723
1025.17	0.0272055
1025.3	0.0271443
1025.44	0.0281225
1025.57	0.0275723
1025.7	0.0276946
1025.84	0.0276946
1025.97	0.0276946
1026.11	0.0278168
1026.24	0.0277557
1026.37	0.0275112
1026.51	0.0278168
1026.64	0.0283059
1026.78	0.0271443
1026.91	0.0267775
1027.04	0.0280002
1027.18	0.0276946
1027.31	0.0264107
1027.44	0.0267775
1027.58	0.0272666
1027.71	0.0273889
1027.85	0.0267164
1027.98	0.0273277
1028.11	0.0279391
1028.25	0.0272666
1028.38	0.0268387
1028.52	0.0276334
1028.65	0.0280614
1028.78	0.0270832
1028.92	0.0273277
1029.05	0.0283059
1029.18	0.0270221
1029.32	0.0270832
1029.45	0.0268387
1029.59	0.0277557
1029.72	0.0273277
1029.85	0.0280614
1029.99	0.02745
1030.12	0.0279391
1030.26	0.0268387
1030.39	0.0277557
1030.52	0.0267775
1030.66	0.0275723
1030.79	0.0270221
1030.92	0.0273889
1031.06	0.0273277
1031.19	0.0265941
1031.33	0.02745
1031.46	0.0272055
1031.59	0.0275723
1031.73	0.0276946
1031.86	0.02745
1031.99	0.0281225
1032.13	0.0278168
1032.26	0.0275112
1032.4	0.0273889
1032.53	0.0267164
1032.66	0.0281837
1032.8	0.0266553
1032.93	0.0272055
1033.07	0.0270221
1033.2	0.0270832
1033.33	0.0268998
1033.47	0.0280002
1033.6	0.02745
1033.73	0.0278168
1033.87	0.0276946
1034	0.0273277
1034.14	0.0272055
1034.27	0.0264107
1034.4	0.0264718
1034.54	0.0265941
1034.67	0.0279391
1034.81	0.0277557
1034.94	0.0267775
1035.07	0.027878
1035.21	0.0272666
1035.34	0.027878
1035.47	0.02745
1035.61	0.0272666
1035.74	0.0270832
1035.88	0.02745
1036.01	0.0273277
1036.14	0.0269609
1036.28	0.0277557
1036.41	0.0272666
1036.54	0.0282448
1036.68	0.0279391
1036.81	0.0275723
1036.95	0.0272666
1037.08	0.0271443
1037.21	0.0273277
1037.35	0.0270221
1037.48	0.0282448
1037.62	0.0271443
1037.75	0.0266553
1037.88	0.0276946
1038.02	0.0271443
1038.15	0.027878
1038.28	0.0273889
1038.42	0.0273889
1038.55	0.0275112
1038.69	0.0281837
1038.82	0.0271443
1038.95	0.0273277
1039.09	0.02745
1039.22	0.0275723
1039.35	0.0270221
1039.49	0.0281837
1039.62	0.0273277
1039.76	0.0270221
1039.89	0.0270221
1040.02	0.0275112
1040.16	0.027878
1040.29	0.0272666
1040.43	0.0273277
1040.56	0.0277557
1040.69	0.0271443
1040.83	0.0273277
1040.96	0.02745
1041.09	0.0273277
1041.23	0.0267164
1041.36	0.0275723
1041.5	0.0276334
1041.63	0.027878
1041.76	0.0266553
1041.9	0.0275112
1042.03	0.0268998
1042.16	0.0270221
1042.3	0.0272666
1042.43	0.0275112
1042.57	0.0270832
1042.7	0.0275112
1042.83	0.0275723
1042.97	0.026533
1043.1	0.0268998
1043.23	0.026533
1043.37	0.0272666
1043.5	0.0266553
1043.64	0.0276334
1043.77	0.0273889
1043.9	0.0272055
1044.04	0.0275112
1044.17	0.0272055
1044.31	0.02745
1044.44	0.0267775
1044.57	0.0268387
1044.71	0.0275723
1044.84	0.0273889
1044.97	0.0265941
1045.11	0.0272666
1045.24	0.0272666
1045.38	0.0277557
1045.51	0.0275723
1045.64	0.0270221
1045.78	0.0276334
1045.91	0.0277557
1046.04	0.0283671
1046.18	0.0283059
1046.31	0.02745
1046.45	0.0272055
1046.58	0.0283059
1046.71	0.0270832
1046.85	0.0275723
1046.98	0.0279391
1047.11	0.0273889
1047.25	0.0276334
1047.38	0.0268998
1047.52	0.0272055
1047.65	0.0283671
1047.78	0.0272666
1047.92	0.0270832
1048.05	0.0280614
1048.18	0.0267775
1048.32	0.0272666
1048.45	0.0279391
1048.59	0.0264107
1048.72	0.0271443
1048.85	0.0273277
1048.99	0.0278168
1049.12	0.0275112
1049.25	0.0268387
1049.39	0.0276334
1049.52	0.0275112
1049.66	0.0269609
1049.79	0.02745
1049.92	0.0270832
1050.06	0.0280614
1050.19	0.027878
1050.33	0.0275723
1050.46	0.0267164
1050.59	0.0271443
1050.73	0.0267164
1050.86	0.0267164
1050.99	0.0276946
1051.13	0.0268387
1051.26	0.0276334
1051.4	0.0272055
1051.53	0.0270221
1051.66	0.0269609
1051.8	0.0271443
1051.93	0.0265941
1052.06	0.0275112
1052.2	0.0268998
1052.33	0.0270221
1052.47	0.0276946
1052.6	0.0284282
1052.73	0.0272055
1052.87	0.02745
1053	0.0272666
1053.13	0.0276334
1053.27	0.0272666
1053.4	0.0280614
1053.54	0.0276946
1053.67	0.0278168
1053.8	0.0277557
1053.94	0.0276334
1054.07	0.0276334
1054.2	0.0277557
1054.34	0.02745
1054.47	0.027878
1054.61	0.0271443
1054.74	0.0276334
1054.87	0.0270832
1055.01	0.026105
1055.14	0.0280002
1055.27	0.0277557
1055.41	0.0278168
1055.54	0.0273277
1055.68	0.02745
1055.81	0.0272055
1055.94	0.0276334
1056.08	0.0271443
1056.21	0.0269609
1056.34	0.02745
1056.48	0.0280002
1056.61	0.0266553
1056.75	0.0268387
1056.88	0.0275112
1057.01	0.0271443
1057.15	0.0273277
1057.28	0.0265941
1057.41	0.02745
1057.55	0.0276946
1057.68	0.0273277
1057.82	0.0276946
1057.95	0.0270221
1058.08	0.0277557
1058.22	0.0270221
1058.35	0.0273277
1058.48	0.0271443
1058.62	0.0286727
1058.75	0.0271443
1058.89	0.0278168
1059.02	0.0279391
1059.15	0.0277557
1059.29	0.0272666
1059.42	0.0277557
1059.55	0.0273277
1059.69	0.0281837
1059.82	0.0273889
1059.96	0.0273889
1060.09	0.0283059
1060.22	0.0268387
1060.36	0.0276946
1060.49	0.027878
1060.62	0.0281225
1060.76	0.0271443
1060.89	0.0275723
1061.03	0.0277557
1061.16	0.0264718
1061.29	0.0278168
1061.43	0.0275723
1061.56	0.0273277
1061.69	0.0266553
1061.83	0.0262884
1061.96	0.0270221
1062.1	0.0272666
1062.23	0.0279391
1062.36	0.0283059
1062.5	0.0281225
1062.63	0.0276946
1062.76	0.0282448
1062.9	0.0269609
1063.03	0.0276946
1063.17	0.0279391
1063.3	0.0272055
1063.43	0.0280002
1063.57	0.0281837
1063.7	0.0281837
1063.83	0.0276946
1063.97	0.02745
1064.1	0.0272055
1064.23	0.0272666
1064.37	0.0270221
1064.5	0.0269609
1064.64	0.026533
1064.77	0.0289784
1064.9	0.0267164
1065.04	0.02745
1065.17	0.0267775
1065.3	0.0275112
1065.44	0.0278168
1065.57	0.0289173
1065.71	0.0270832
1065.84	0.0265941
1065.97	0.0273277
1066.11	0.0267775
1066.24	0.02745
1066.37	0.0273889
1066.51	0.0270221
1066.64	0.0272666
1066.78	0.0275112
1066.91	0.0275723
1067.04	0.0268387
1067.18	0.0281225
1067.31	0.0272666
1067.44	0.0271443
1067.58	0.0272055
1067.71	0.0276946
1067.85	0.0271443
1067.98	0.0275723
1068.11	0.0283671
1068.25	0.0270832
1068.38	0.0273889
1068.51	0.0264107
1068.65	0.02745
1068.78	0.0273889
1068.92	0.0287339
1069.05	0.02745
1069.18	0.0275112
1069.32	0.0268387
1069.45	0.0272666
1069.58	0.0275112
1069.72	0.0270832
1069.85	0.0272666
1069.98	0.0275112
1070.12	0.02745
1070.25	0.02745
1070.39	0.0280002
1070.52	0.0272055
1070.65	0.02745
1070.79	0.0266553
1070.92	0.0277557
1071.05	0.0276946
1071.19	0.0267775
1071.32	0.0275112
1071.46	0.0271443
1071.59	0.0273277
1071.72	0.0256771
1071.86	0.0280002
1071.99	0.0280002
1072.12	0.0273277
1072.26	0.0272055
1072.39	0.0272055
1072.53	0.0264718
1072.66	0.0269609
1072.79	0.0273889
1072.93	0.0273889
1073.06	0.0273889
1073.19	0.0267775
1073.33	0.02745
1073.46	0.0265941
1073.59	0.0276334
1073.73	0.0273889
1073.86	0.0271443
1074	0.0278168
1074.13	0.0280002
1074.26	0.0264107
1074.4	0.0272055
1074.53	0.0270832
1074.66	0.0276946
1074.8	0.0270221
1074.93	0.0268387
1075.07	0.0268998
1075.2	0.0273277
1075.33	0.0273889
1075.47	0.0275112
1075.6	0.0269609
1075.73	0.0273277
1075.87	0.02745
1076	0.0275112
1076.14	0.0280614
1076.27	0.0270832
1076.4	0.0266553
1076.54	0.0272666
1076.67	0.0283671
1076.8	0.0272666
1076.94	0.0275112
1077.07	0.027878
1077.2	0.0270832
1077.34	0.0270221
1077.47	0.0280614
1077.61	0.0281225
1077.74	0.0269609
1077.87	0.0271443
1078.01	0.0277557
1078.14	0.0276334
1078.27	0.0268387
1078.41	0.02745
1078.54	0.0275723
1078.68	0.0277557
1078.81	0.0275723
1078.94	0.0276946
1079.08	0.0272666
1079.21	0.0271443
1079.34	0.027878
1079.48	0.0268387
1079.61	0.0273277
1079.74	0.0269609
1079.88	0.0283671
1080.01	0.0277557
1080.15	0.0272055
1080.28	0.0267164
1080.41	0.0275723
1080.55	0.0276946
1080.68	0.0283671
1080.81	0.0275112
1080.95	0.0278168
1081.08	0.0265941
1081.22	0.0270832
1081.35	0.0277557
1081.48	0.0269609
1081.62	0.0270221
1081.75	0.0284282
1081.88	0.0275112
1082.02	0.0282448
1082.15	0.0280002
1082.28	0.0263496
1082.42	0.0273889
1082.55	0.0276334
1082.69	0.0280002
1082.82	0.0273889
1082.95	0.0278168
1083.09	0.0268387
1083.22	0.0276946
1083.35	0.0276946
1083.49	0.0277557
1083.62	0.0270832
1083.75	0.0282448
1083.89	0.0281837
1084.02	0.0270221
1084.16	0.0280614
1084.29	0.0276334
1084.42	0.0276946
1084.56	0.0264718
1084.69	0.0271443
1084.82	0.0280002
1084.96	0.0275112
1085.09	0.0268998
1085.23	0.0273889
1085.36	0.0273277
1085.49	0.027878
1085.63	0.0276334
1085.76	0.0272055
1085.89	0.0272055
1086.03	0.0280002
1086.16	0.0268998
1086.29	0.0280002
1086.43	0.0265941
1086.56	0.0275723
1086.7	0.0264718
1086.83	0.0278168
1086.96	0.0275112
1087.1	0.0270832
1087.23	0.0276334
1087.36	0.0267775
1087.5	0.0268998
1087.63	0.0270221
1087.76	0.0272055
1087.9	0.0272666
1088.03	0.0280614
1088.17	0.0272666
1088.3	0.0282448
1088.43	0.0270832
1088.57	0.027878
1088.7	0.0276334
1088.83	0.0273277
1088.97	0.0276334
1089.1	0.0276946
1089.24	0.0283671
1089.37	0.0266553
1089.5	0.0272055
1089.64	0.02745
1089.77	0.0269609
1089.9	0.0284893
1090.04	0.0271443
1090.17	0.026533
1090.3	0.0270221
1090.44	0.0272055
1090.57	0.0269609
1090.71	0.0272666
1090.84	0.0273889
1090.97	0.0276946
1091.11	0.0267164
1091.24	0.0272666
1091.37	0.0273277
1091.51	0.0280614
1091.64	0.0281837
1091.77	0.0276334
1091.91	0.0280614
1092.04	0.0271443
1092.18	0.0278168
1092.31	0.0270832
1092.44	0.0273889
1092.58	0.0277557
1092.71	0.0268998
1092.84	0.0281837
1092.98	0.0276334
1093.11	0.0268387
1093.24	0.0273889
1093.38	0.0273889
1093.51	0.0276946
1093.65	0.0270832
1093.78	0.0280002
1093.91	0.0278168
1094.05	0.0264718
1094.18	0.0267164
1094.31	0.0275723
1094.45	0.0277557
1094.58	0.0277557
1094.71	0.0280614
1094.85	0.0276946
1094.98	0.0263496
1095.12	0.0276946
1095.25	0.0269609
1095.38	0.0281225
1095.52	0.0278168
1095.65	0.0273889
1095.78	0.02745
1095.92	0.0267775
1096.05	0.0278168
1096.18	0.0278168
1096.32	0.0276946
1096.45	0.0275112
1096.59	0.0279391
1096.72	0.0272055
1096.85	0.0269609
1096.99	0.0281225
1097.12	0.0277557
1097.25	0.0270221
1097.39	0.0272055
1097.52	0.0273889
1097.65	0.0275723
1097.79	0.0272055
1097.92	0.0280002
1098.06	0.0276946
1098.19	0.02745
1098.32	0.0278168
1098.46	0.0279391
1098.59	0.0281225
1098.72	0.0273277
1098.86	0.0272666
1098.99	0.0270832
1099.12	0.0273277
1099.26	0.0268998
1099.39	0.0276946
1099.53	0.0273277
1099.66	0.0272666
1099.79	0.02745
1099.93	0.0271443
1100.06	0.0259828
1100.19	0.027878
1100.33	0.0272666
1100.46	0.0270832
1100.59	0.0276946
1100.73	0.026533
1100.86	0.0277557
1100.99	0.026533
1101.13	0.0272666
1101.26	0.0270221
1101.4	0.0272055
1101.53	0.0271443
1101.66	0.0272666
1101.8	0.0276334
1101.93	0.0273889
1102.06	0.0278168
1102.2	0.0268998
1102.33	0.026533
1102.46	0.0273889
1102.6	0.0272055
1102.73	0.0273277
1102.87	0.0267775
1103	0.026533
1103.13	0.0270832
1103.27	0.0270221
1103.4	0.0275112
1103.53	0.026105
1103.67	0.0272666
1103.8	0.0284893
1103.93	0.0280614
1104.07	0.0271443
1104.2	0.0278168
1104.34	0.0278168
1104.47	0.02745
1104.6	0.0266553
1104.74	0.0278168
1104.87	0.0270832
1105	0.0275723
1105.14	0.0270221
1105.27	0.0266553
1105.4	0.02745
1105.54	0.02745
1105.67	0.0272666
1105.8	0.0273277
1105.94	0.0281225
1106.07	0.0276334
1106.21	0.0270832
1106.34	0.0268998
1106.47	0.0270832
1106.61	0.0270221
1106.74	0.0272666
1106.87	0.0276946
1107.01	0.0270221
1107.14	0.0272666
1107.27	0.0268998
1107.41	0.0275112
1107.54	0.026533

