Source: Spectrum Viewer

Chart: Pulse Spectrum

Series: 
Wavelength (nm)	S (a.u.)
617.638	0.0274467
617.773	0.027141
617.908	0.0268965
618.043	0.0268354
618.178	0.0274467
618.313	0.0272022
618.448	0.0282413
618.583	0.0275078
618.718	0.0275689
618.853	0.0265909
618.988	0.0270188
619.123	0.0267743
619.258	0.0272022
619.394	0.0269576
619.529	0.0282413
619.664	0.0275689
619.799	0.0273244
619.934	0.0280579
620.069	0.0280579
620.204	0.0275078
620.339	0.0272633
620.474	0.0279357
620.609	0.0275078
620.744	0.0277523
620.879	0.0268354
621.014	0.0274467
621.149	0.0273244
621.284	0.0269576
621.419	0.0276301
621.554	0.0270188
621.689	0.0270799
621.825	0.027141
621.96	0.0275078
622.095	0.0272022
622.23	0.0272022
622.365	0.026652
622.5	0.0276301
622.635	0.0275689
622.77	0.0281191
622.905	0.0267743
623.04	0.0267131
623.175	0.0273855
623.31	0.0275689
623.445	0.0275078
623.58	0.0279968
623.715	0.0275078
623.85	0.0275689
623.985	0.0276301
624.12	0.0276912
624.255	0.0274467
624.39	0.0272022
624.525	0.0267743
624.661	0.0268965
624.796	0.026652
624.931	0.0272022
625.066	0.0277523
625.201	0.0275078
625.336	0.0267743
625.471	0.0277523
625.606	0.0275078
625.741	0.0281802
625.876	0.0272633
626.011	0.0275689
626.146	0.0283025
626.281	0.0268354
626.416	0.0273244
626.551	0.0275689
626.686	0.0267743
626.821	0.0273244
626.956	0.0270799
627.091	0.0283025
627.226	0.027141
627.361	0.0278134
627.496	0.0278134
627.631	0.0281802
627.766	0.0276912
627.901	0.0272022
628.036	0.0272022
628.171	0.0280579
628.307	0.0275078
628.442	0.0269576
628.577	0.0275689
628.712	0.027141
628.847	0.0262852
628.982	0.0269576
629.117	0.0265297
629.252	0.0270799
629.387	0.0282413
629.522	0.0279357
629.657	0.0275689
629.792	0.0272633
629.927	0.0272633
630.062	0.0276301
630.197	0.0272022
630.332	0.0268354
630.467	0.0268354
630.602	0.0267743
630.737	0.027141
630.872	0.0279968
631.007	0.0272022
631.142	0.0276301
631.277	0.0275078
631.412	0.0273855
631.547	0.0273244
631.682	0.0276301
631.817	0.0276912
631.952	0.0276301
632.087	0.0256739
632.222	0.0270799
632.357	0.0276301
632.492	0.0273855
632.627	0.0262852
632.762	0.0270799
632.897	0.0274467
633.032	0.0276301
633.167	0.0267743
633.302	0.0273244
633.437	0.0273244
633.572	0.0273855
633.707	0.027141
633.842	0.027141
633.978	0.0279968
634.113	0.0276301
634.248	0.0278746
634.383	0.0279968
634.518	0.0274467
634.653	0.0269576
634.788	0.0281802
634.923	0.0276912
635.058	0.0264075
635.193	0.0273855
635.328	0.0273244
635.463	0.0265909
635.598	0.0267743
635.733	0.0267743
635.868	0.0273855
636.003	0.0281802
636.138	0.027141
636.273	0.0284858
636.408	0.0275078
636.543	0.0275078
636.678	0.0267131
636.813	0.0274467
636.948	0.0272633
637.083	0.0275689
637.218	0.0275078
637.353	0.0276301
637.488	0.0272022
637.623	0.0284858
637.758	0.0267743
637.893	0.0276912
638.028	0.0277523
638.163	0.0275078
638.298	0.0275689
638.433	0.0273855
638.568	0.0275689
638.703	0.0272633
638.838	0.0265297
638.973	0.0272022
639.108	0.0283636
639.243	0.0268354
639.378	0.0268965
639.513	0.0280579
639.648	0.0267743
639.783	0.0268354
639.918	0.0275078
640.053	0.0268965
640.188	0.0268354
640.323	0.0278746
640.458	0.0269576
640.593	0.0274467
640.728	0.0270799
640.863	0.0265297
640.998	0.0277523
641.133	0.0267743
641.268	0.0275078
641.403	0.0273244
641.538	0.0268965
641.673	0.0272633
641.808	0.0272022
641.943	0.0274467
642.078	0.0275689
642.213	0.0263464
642.348	0.0272022
642.483	0.0278746
642.618	0.0270188
642.753	0.0272022
642.888	0.0275078
643.023	0.0274467
643.158	0.0272022
643.293	0.0276301
643.428	0.0278746
643.563	0.0270799
643.698	0.0281802
643.833	0.0277523
643.968	0.0267743
644.103	0.0275078
644.237	0.0276301
644.372	0.0269576
644.507	0.027141
644.642	0.0277523
644.777	0.0259185
644.912	0.0270188
645.047	0.0273244
645.182	0.0276301
645.317	0.0274467
645.452	0.0268354
645.587	0.0274467
645.722	0.0279968
645.857	0.0274467
645.992	0.0275078
646.127	0.027141
646.262	0.0273244
646.397	0.0277523
646.532	0.0273244
646.667	0.0262852
646.802	0.0268965
646.937	0.0273855
647.072	0.0284247
647.207	0.027141
647.342	0.0273855
647.477	0.0270799
647.612	0.0274467
647.747	0.0283025
647.882	0.0278134
648.017	0.0272022
648.152	0.0274467
648.287	0.0277523
648.422	0.0277523
648.557	0.0274467
648.692	0.0277523
648.827	0.0282413
648.962	0.0264686
649.097	0.026652
649.232	0.0273855
649.367	0.0279357
649.502	0.0275689
649.637	0.0273244
649.772	0.0273855
649.906	0.0270188
650.041	0.0270799
650.176	0.0273855
650.311	0.0275078
650.446	0.0279968
650.581	0.0272022
650.716	0.0275689
650.851	0.0274467
650.986	0.0273244
651.121	0.027141
651.256	0.0272633
651.391	0.0272022
651.526	0.0262852
651.661	0.0272633
651.796	0.0270188
651.931	0.0272022
652.066	0.027141
652.201	0.0272633
652.336	0.0273855
652.471	0.0275078
652.606	0.0274467
652.741	0.0273244
652.876	0.0273244
653.011	0.0276912
653.146	0.0272633
653.281	0.0281802
653.415	0.0274467
653.55	0.0273855
653.685	0.0270188
653.82	0.0269576
653.955	0.0276912
654.09	0.0267131
654.225	0.0277523
654.36	0.026652
654.495	0.0280579
654.63	0.0278746
654.765	0.0272633
654.9	0.0273855
655.035	0.0269576
655.17	0.0275078
655.305	0.0265297
655.44	0.0269576
655.575	0.0276301
655.71	0.0262241
655.845	0.0278134
655.98	0.0283025
656.115	0.0275689
656.25	0.0278746
656.384	0.0274467
656.519	0.0276301
656.654	0.0272022
656.789	0.0279357
656.924	0.0273855
657.059	0.0274467
657.194	0.0278134
657.329	0.0279357
657.464	0.0274467
657.599	0.0270188
657.734	0.0267743
657.869	0.0272633
658.004	0.0279357
658.139	0.0277523
658.274	0.0279357
658.409	0.0272633
658.544	0.0278134
658.679	0.0272633
658.813	0.0279357
658.948	0.026652
659.083	0.0264075
659.218	0.0272022
659.353	0.0274467
659.488	0.0272022
659.623	0.0272022
659.758	0.0270799
659.893	0.0268965
660.028	0.026652
660.163	0.0270799
660.298	0.0265909
660.433	0.0275078
660.568	0.0270188
660.703	0.0275078
660.838	0.0270799
660.972	0.0267743
661.107	0.0277523
661.242	0.0277523
661.377	0.0273244
661.512	0.0281191
661.647	0.0278134
661.782	0.0273855
661.917	0.0276301
662.052	0.0282413
662.187	0.0278134
662.322	0.0261018
662.457	0.0272633
662.592	0.0273855
662.727	0.027141
662.862	0.0279357
662.996	0.0279357
663.131	0.0273244
663.266	0.0273244
663.401	0.0273244
663.536	0.0273244
663.671	0.0279357
663.806	0.0274467
663.941	0.0273244
664.076	0.0273855
664.211	0.0283636
664.346	0.0276301
664.481	0.0278746
664.616	0.0267131
664.75	0.0274467
664.885	0.0270188
665.02	0.0279357
665.155	0.0272022
665.29	0.0277523
665.425	0.0269576
665.56	0.027141
665.695	0.0277523
665.83	0.0276301
665.965	0.0270799
666.1	0.0270799
666.235	0.0284247
666.37	0.0278746
666.504	0.0281191
666.639	0.0286692
666.774	0.0276301
666.909	0.0267131
667.044	0.0277523
667.179	0.0272022
667.314	0.0269576
667.449	0.0268965
667.584	0.0277523
667.719	0.0270799
667.854	0.0270799
667.989	0.0275078
668.123	0.0273244
668.258	0.0278134
668.393	0.0272633
668.528	0.0270799
668.663	0.0273244
668.798	0.0273855
668.933	0.0277523
669.068	0.0273855
669.203	0.0274467
669.338	0.0281802
669.473	0.0270799
669.607	0.0270799
669.742	0.0276912
669.877	0.0282413
670.012	0.0276301
670.147	0.0273855
670.282	0.0263464
670.417	0.0273855
670.552	0.0276301
670.687	0.0273855
670.822	0.0282413
670.957	0.0278746
671.091	0.0270799
671.226	0.0277523
671.361	0.0273855
671.496	0.027141
671.631	0.0281802
671.766	0.0272633
671.901	0.0281191
672.036	0.0276912
672.171	0.0275078
672.306	0.027141
672.44	0.0276301
672.575	0.0262241
672.71	0.0274467
672.845	0.0264686
672.98	0.026652
673.115	0.026652
673.25	0.0273244
673.385	0.0278134
673.52	0.0270799
673.655	0.0270188
673.789	0.0277523
673.924	0.0278134
674.059	0.0276301
674.194	0.0270188
674.329	0.0279357
674.464	0.0279357
674.599	0.0276301
674.734	0.0268965
674.869	0.0273855
675.003	0.027141
675.138	0.027141
675.273	0.0275689
675.408	0.0277523
675.543	0.0278746
675.678	0.0270799
675.813	0.026652
675.948	0.0272633
676.083	0.0263464
676.217	0.0274467
676.352	0.0280579
676.487	0.0282413
676.622	0.0267131
676.757	0.0286081
676.892	0.0268965
677.027	0.0280579
677.162	0.0272022
677.297	0.0273855
677.431	0.0282413
677.566	0.0277523
677.701	0.0277523
677.836	0.0275689
677.971	0.0273244
678.106	0.0277523
678.241	0.0272022
678.376	0.0272633
678.511	0.0270188
678.645	0.0275689
678.78	0.027141
678.915	0.0273855
679.05	0.0265297
679.185	0.0270188
679.32	0.0273855
679.455	0.0270799
679.59	0.0263464
679.724	0.0273244
679.859	0.0277523
679.994	0.0272633
680.129	0.0268354
680.264	0.0268965
680.399	0.0275078
680.534	0.0274467
680.669	0.0268965
680.803	0.0276301
680.938	0.0275078
681.073	0.0273855
681.208	0.0270188
681.343	0.0275078
681.478	0.0278134
681.613	0.0275078
681.748	0.0267131
681.882	0.026652
682.017	0.0275078
682.152	0.0267743
682.287	0.0265297
682.422	0.0268965
682.557	0.0270188
682.692	0.0273244
682.827	0.0272022
682.961	0.0272633
683.096	0.0270799
683.231	0.0272022
683.366	0.0279968
683.501	0.0272633
683.636	0.0272633
683.771	0.0273244
683.906	0.027141
684.04	0.0273855
684.175	0.0275689
684.31	0.0281191
684.445	0.0274467
684.58	0.0275078
684.715	0.0270799
684.85	0.0274467
684.984	0.0270188
685.119	0.0279968
685.254	0.0281802
685.389	0.0275078
685.524	0.0278134
685.659	0.0274467
685.794	0.0268354
685.928	0.0276301
686.063	0.0277523
686.198	0.0275078
686.333	0.0272022
686.468	0.0276301
686.603	0.0277523
686.738	0.0272633
686.872	0.0269576
687.007	0.0268354
687.142	0.0274467
687.277	0.0272633
687.412	0.026652
687.547	0.0286692
687.682	0.026652
687.816	0.0275689
687.951	0.0281802
688.086	0.0281802
688.221	0.0278134
688.356	0.0273855
688.491	0.0269576
688.626	0.0283636
688.76	0.0262852
688.895	0.0275078
689.03	0.0270799
689.165	0.0278746
689.3	0.0273244
689.435	0.0272633
689.57	0.0274467
689.704	0.0277523
689.839	0.026652
689.974	0.0282413
690.109	0.0276301
690.244	0.027141
690.379	0.0269576
690.513	0.0269576
690.648	0.0279357
690.783	0.0276301
690.918	0.0275689
691.053	0.0269576
691.188	0.026652
691.323	0.0279968
691.457	0.0270799
691.592	0.0275689
691.727	0.0275689
691.862	0.0274467
691.997	0.0278746
692.132	0.0282413
692.266	0.0276912
692.401	0.0278134
692.536	0.0274467
692.671	0.0275689
692.806	0.0280579
692.941	0.0275078
693.075	0.0277523
693.21	0.0273244
693.345	0.0267743
693.48	0.0278746
693.615	0.0268965
693.75	0.0280579
693.885	0.0268965
694.019	0.0273855
694.154	0.0272022
694.289	0.0272633
694.424	0.0273855
694.559	0.0279357
694.694	0.0272022
694.828	0.0275078
694.963	0.0268965
695.098	0.0273855
695.233	0.0280579
695.368	0.0276301
695.503	0.0272633
695.637	0.0273855
695.772	0.0269576
695.907	0.0272022
696.042	0.0270188
696.177	0.0280579
696.312	0.0274467
696.446	0.0275078
696.581	0.0278134
696.716	0.0270799
696.851	0.0276912
696.986	0.0268965
697.12	0.0279968
697.255	0.0275689
697.39	0.0272633
697.525	0.0269576
697.66	0.0278746
697.795	0.0278746
697.929	0.0269576
698.064	0.0274467
698.199	0.0273855
698.334	0.0274467
698.469	0.0272022
698.604	0.0278134
698.738	0.0281191
698.873	0.0270799
699.008	0.0273244
699.143	0.0268965
699.278	0.0275689
699.412	0.0276912
699.547	0.0275689
699.682	0.0278746
699.817	0.026652
699.952	0.0272633
700.087	0.0273244
700.221	0.0276301
700.356	0.0274467
700.491	0.027141
700.626	0.0276301
700.761	0.0273855
700.895	0.0267743
701.03	0.0279968
701.165	0.0279357
701.3	0.0267743
701.435	0.0275689
701.57	0.0278134
701.704	0.0265297
701.839	0.0273855
701.974	0.0270799
702.109	0.0272022
702.244	0.0278134
702.378	0.0278134
702.513	0.0272633
702.648	0.0277523
702.783	0.026652
702.918	0.0275078
703.052	0.0276301
703.187	0.0273244
703.322	0.0267743
703.457	0.0276912
703.592	0.0274467
703.727	0.0272022
703.861	0.0268354
703.996	0.0283636
704.131	0.0278134
704.266	0.0286081
704.401	0.0276912
704.535	0.0268965
704.67	0.0279357
704.805	0.0270799
704.94	0.0273244
705.075	0.0270799
705.209	0.0273244
705.344	0.0265297
705.479	0.0274467
705.614	0.0278134
705.749	0.0270799
705.883	0.0276301
706.018	0.0276301
706.153	0.026652
706.288	0.0273244
706.423	0.0267131
706.557	0.0270799
706.692	0.0276912
706.827	0.0270188
706.962	0.0275078
707.097	0.0275078
707.231	0.0275078
707.366	0.0270799
707.501	0.0273244
707.636	0.0270188
707.771	0.0279357
707.905	0.0275689
708.04	0.0274467
708.175	0.0273244
708.31	0.0282413
708.445	0.0272633
708.579	0.0274467
708.714	0.0276301
708.849	0.0270799
708.984	0.0264686
709.118	0.0277523
709.253	0.0273855
709.388	0.0273244
709.523	0.0272633
709.658	0.0272633
709.792	0.0275078
709.927	0.0270799
710.062	0.0275689
710.197	0.0263464
710.332	0.0267131
710.466	0.0276301
710.601	0.0265297
710.736	0.0273855
710.871	0.0267743
711.006	0.0268965
711.14	0.0268354
711.275	0.0275078
711.41	0.027141
711.545	0.0279357
711.679	0.0268965
711.814	0.0278746
711.949	0.0268354
712.084	0.0275689
712.219	0.0279357
712.353	0.0269576
712.488	0.0275078
712.623	0.0274467
712.758	0.0281802
712.892	0.0270799
713.027	0.0276912
713.162	0.0275689
713.297	0.0278134
713.432	0.0275689
713.566	0.0278746
713.701	0.0272633
713.836	0.0267743
713.971	0.026652
714.105	0.0272633
714.24	0.0272022
714.375	0.027141
714.51	0.0269576
714.645	0.027141
714.779	0.0277523
714.914	0.0273244
715.049	0.0268354
715.184	0.026652
715.318	0.027141
715.453	0.0273855
715.588	0.0270799
715.723	0.0278746
715.858	0.0282413
715.992	0.027141
716.127	0.0270188
716.262	0.026652
716.397	0.0276301
716.531	0.0272022
716.666	0.0270799
716.801	0.0278134
716.936	0.0270188
717.07	0.0269576
717.205	0.0274467
717.34	0.0270799
717.475	0.0275689
717.61	0.0274467
717.744	0.0270799
717.879	0.0273855
718.014	0.0279357
718.149	0.0273855
718.283	0.0272633
718.418	0.0276301
718.553	0.0268965
718.688	0.0273855
718.822	0.0276301
718.957	0.0265297
719.092	0.0282413
719.227	0.0262241
719.361	0.0275078
719.496	0.0274467
719.631	0.0276301
719.766	0.0279968
719.9	0.0273855
720.035	0.0259796
720.17	0.0276301
720.305	0.0275078
720.44	0.0279968
720.574	0.0275078
720.709	0.0277523
720.844	0.0275078
720.979	0.029036
721.113	0.0265297
721.248	0.0277523
721.383	0.0268965
721.518	0.0268354
721.652	0.0276912
721.787	0.0280579
721.922	0.0263464
722.057	0.0273244
722.191	0.0274467
722.326	0.026652
722.461	0.0268965
722.596	0.0270188
722.73	0.0276912
722.865	0.0270188
723	0.0269576
723.135	0.027141
723.269	0.0282413
723.404	0.0273855
723.539	0.0273244
723.674	0.0283025
723.808	0.0269576
723.943	0.0273244
724.078	0.0273244
724.213	0.0272633
724.347	0.0275689
724.482	0.0265909
724.617	0.0274467
724.752	0.0265909
724.886	0.0278134
725.021	0.0277523
725.156	0.0275689
725.291	0.0270799
725.425	0.027141
725.56	0.0275078
725.695	0.0275078
725.829	0.0276912
725.964	0.0256739
726.099	0.0272022
726.234	0.0264075
726.368	0.0268354
726.503	0.0273244
726.638	0.0272022
726.773	0.0274467
726.907	0.0264686
727.042	0.027141
727.177	0.0272633
727.312	0.0268354
727.446	0.0273244
727.581	0.0273855
727.716	0.0274467
727.851	0.0270188
727.985	0.027141
728.12	0.0272633
728.255	0.0275078
728.389	0.0275689
728.524	0.0276912
728.659	0.0276912
728.794	0.0268965
728.928	0.0270188
729.063	0.0287915
729.198	0.0275078
729.333	0.0277523
729.467	0.0274467
729.602	0.0275078
729.737	0.0275078
729.872	0.0278134
730.006	0.0276301
730.141	0.0274467
730.276	0.0273244
730.41	0.0272633
730.545	0.0273244
730.68	0.0278134
730.815	0.0279357
730.949	0.0279357
731.084	0.0269576
731.219	0.0273855
731.354	0.0281191
731.488	0.0273244
731.623	0.0276301
731.758	0.0273855
731.892	0.027141
732.027	0.0268965
732.162	0.0270188
732.297	0.0281802
732.431	0.0284247
732.566	0.0275689
732.701	0.0270188
732.835	0.0273855
732.97	0.0278746
733.105	0.0264075
733.24	0.0276301
733.374	0.0274467
733.509	0.0276301
733.644	0.0281191
733.779	0.026652
733.913	0.027141
734.048	0.026652
734.183	0.0275078
734.317	0.0270188
734.452	0.0268354
734.587	0.0273244
734.722	0.0278746
734.856	0.0278134
734.991	0.0269576
735.126	0.0272022
735.26	0.0279968
735.395	0.0287915
735.53	0.0276912
735.665	0.0277523
735.799	0.0281802
735.934	0.0277523
736.069	0.0275689
736.203	0.0289137
736.338	0.0286692
736.473	0.0274467
736.607	0.0272633
736.742	0.0273244
736.877	0.0276301
737.012	0.0275078
737.146	0.0276912
737.281	0.0268354
737.416	0.0273855
737.55	0.0267743
737.685	0.0273244
737.82	0.0268354
737.955	0.027141
738.089	0.0278134
738.224	0.0276912
738.359	0.0269576
738.493	0.0265297
738.628	0.0279968
738.763	0.0281191
738.897	0.0272633
739.032	0.0272633
739.167	0.0268354
739.302	0.027141
739.436	0.0272022
739.571	0.0274467
739.706	0.0277523
739.84	0.0275689
739.975	0.0269576
740.11	0.0268354
740.244	0.0274467
740.379	0.0275689
740.514	0.0275078
740.649	0.0280579
740.783	0.0270799
740.918	0.0274467
741.053	0.0279357
741.187	0.0278134
741.322	0.0276912
741.457	0.0275689
741.591	0.0273855
741.726	0.0272633
741.861	0.0270188
741.996	0.0278746
742.13	0.0276912
742.265	0.0274467
742.4	0.0276912
742.534	0.0273855
742.669	0.0267131
742.804	0.0277523
742.938	0.0278746
743.073	0.0267131
743.208	0.0272633
743.342	0.0268354
743.477	0.0281191
743.612	0.0275689
743.747	0.027141
743.881	0.0273855
744.016	0.0277523
744.151	0.0282413
744.285	0.0267743
744.42	0.0279357
744.555	0.0275689
744.689	0.027141
744.824	0.0277523
744.959	0.0273244
745.093	0.0270799
745.228	0.0272022
745.363	0.0273855
745.497	0.0281191
745.632	0.027141
745.767	0.0275689
745.901	0.0270188
746.036	0.0279357
746.171	0.0273855
746.305	0.0272633
746.44	0.0273244
746.575	0.027141
746.71	0.027141
746.844	0.0265297
746.979	0.0273244
747.114	0.0278134
747.248	0.0265297
747.383	0.0279968
747.518	0.0278746
747.652	0.0269576
747.787	0.0276301
747.922	0.0279968
748.056	0.0276301
748.191	0.0272633
748.326	0.0272633
748.46	0.0272022
748.595	0.0265297
748.73	0.0272633
748.864	0.027141
748.999	0.0277523
749.134	0.0269576
749.268	0.0275689
749.403	0.0265297
749.538	0.0272022
749.672	0.0276301
749.807	0.0272633
749.942	0.0272022
750.076	0.0279968
750.211	0.0270188
750.346	0.0272633
750.48	0.0264075
750.615	0.0281802
750.75	0.0273855
750.884	0.0268354
751.019	0.0272022
751.154	0.0275689
751.288	0.0269576
751.423	0.0276912
751.558	0.0270188
751.692	0.0276912
751.827	0.0277523
751.962	0.0272022
752.096	0.027141
752.231	0.0273855
752.366	0.0267743
752.5	0.0275689
752.635	0.0273855
752.77	0.0270799
752.904	0.0268965
753.039	0.0275689
753.174	0.0274467
753.308	0.0270188
753.443	0.0270799
753.578	0.027141
753.712	0.0276301
753.847	0.0273244
753.982	0.0267131
754.116	0.0275078
754.251	0.0273244
754.386	0.0264075
754.52	0.0276912
754.655	0.0276912
754.79	0.0278746
754.924	0.0273855
755.059	0.0281191
755.194	0.0273244
755.328	0.0270799
755.463	0.0269576
755.597	0.0272633
755.732	0.0282413
755.867	0.027141
756.001	0.0264686
756.136	0.0278134
756.271	0.0275689
756.405	0.0283025
756.54	0.0278134
756.675	0.0268965
756.809	0.0273855
756.944	0.0276301
757.079	0.0277523
757.213	0.0279968
757.348	0.0269576
757.483	0.027141
757.617	0.0270188
757.752	0.0269576
757.887	0.0278746
758.021	0.0268354
758.156	0.0279357
758.29	0.027141
758.425	0.0274467
758.56	0.0268965
758.694	0.0282413
758.829	0.0276912
758.964	0.0278134
759.098	0.0276912
759.233	0.0270188
759.368	0.0277523
759.502	0.0269576
759.637	0.0270188
759.772	0.0272022
759.906	0.0265909
760.041	0.0276301
760.175	0.0269576
760.31	0.0268354
760.445	0.0275078
760.579	0.0276912
760.714	0.0268354
760.849	0.0280579
760.983	0.0268354
761.118	0.027141
761.253	0.0273244
761.387	0.0262852
761.522	0.0277523
761.656	0.0273855
761.791	0.0273244
761.926	0.0279357
762.06	0.0279357
762.195	0.0273855
762.33	0.0273855
762.464	0.0269576
762.599	0.0276301
762.733	0.0273855
762.868	0.0272633
763.003	0.0267131
763.137	0.0284858
763.272	0.0275689
763.407	0.0270188
763.541	0.0282413
763.676	0.0280579
763.811	0.0278746
763.945	0.0265909
764.08	0.0277523
764.214	0.0273855
764.349	0.0279357
764.484	0.0275078
764.618	0.0267743
764.753	0.0272633
764.888	0.0272022
765.022	0.0283636
765.157	0.0281802
765.291	0.0272633
765.426	0.028547
765.561	0.0273855
765.695	0.0275078
765.83	0.0276912
765.965	0.0264686
766.099	0.0267743
766.234	0.0280579
766.368	0.0276912
766.503	0.0273244
766.638	0.0284858
766.772	0.0274467
766.907	0.027141
767.041	0.0280579
767.176	0.0279357
767.311	0.0272633
767.445	0.0278746
767.58	0.0282413
767.715	0.0267743
767.849	0.0276912
767.984	0.0272633
768.118	0.0275078
768.253	0.027141
768.388	0.0270188
768.522	0.027141
768.657	0.0274467
768.791	0.027141
768.926	0.0282413
769.061	0.0269576
769.195	0.0278134
769.33	0.0275078
769.465	0.0274467
769.599	0.0274467
769.734	0.0281802
769.868	0.0276301
770.003	0.0279968
770.138	0.0276912
770.272	0.0268354
770.407	0.0278134
770.541	0.0268965
770.676	0.0270188
770.811	0.0268965
770.945	0.0267743
771.08	0.0273855
771.214	0.0268354
771.349	0.0276301
771.484	0.0269576
771.618	0.0278134
771.753	0.0276912
771.887	0.027141
772.022	0.0276301
772.157	0.0282413
772.291	0.0282413
772.426	0.026652
772.56	0.0268354
772.695	0.0278134
772.83	0.0268354
772.964	0.0267131
773.099	0.0278134
773.233	0.0270799
773.368	0.0283636
773.503	0.0270188
773.637	0.0276912
773.772	0.0278746
773.906	0.0282413
774.041	0.0274467
774.176	0.0264686
774.31	0.0273855
774.445	0.0272633
774.579	0.0279968
774.714	0.0272022
774.849	0.0284858
774.983	0.0273855
775.118	0.0265297
775.252	0.0277523
775.387	0.0280579
775.522	0.0275689
775.656	0.0272633
775.791	0.0268965
775.925	0.0276912
776.06	0.0268965
776.195	0.0267743
776.329	0.0274467
776.464	0.0281191
776.598	0.0276912
776.733	0.0279357
776.868	0.0277523
777.002	0.0270799
777.137	0.027141
777.271	0.0280579
777.406	0.0268354
777.54	0.0281191
777.675	0.0275078
777.81	0.027141
777.944	0.0273244
778.079	0.0273855
778.213	0.0268965
778.348	0.0277523
778.483	0.0278746
778.617	0.0276912
778.752	0.0269576
778.886	0.0275078
779.021	0.0283025
779.155	0.0268965
779.29	0.0273244
779.425	0.0270799
779.559	0.0267743
779.694	0.027141
779.828	0.0276912
779.963	0.0274467
780.098	0.0269576
780.232	0.0279357
780.367	0.0273244
780.501	0.0275689
780.636	0.0279357
780.77	0.0279357
780.905	0.0281802
781.04	0.0273244
781.174	0.0265909
781.309	0.0275078
781.443	0.0270799
781.578	0.0267743
781.712	0.0275078
781.847	0.0272022
781.982	0.0268965
782.116	0.0272022
782.251	0.0275689
782.385	0.0274467
782.52	0.0278134
782.654	0.027141
782.789	0.0277523
782.924	0.0275078
783.058	0.0270799
783.193	0.0275078
783.327	0.0275078
783.462	0.0275689
783.596	0.0270188
783.731	0.0275078
783.866	0.0281191
784	0.0275689
784.135	0.0278746
784.269	0.0274467
784.404	0.0279968
784.538	0.0273855
784.673	0.0272022
784.808	0.0276912
784.942	0.0278746
785.077	0.0275078
785.211	0.027141
785.346	0.0280579
785.48	0.0276912
785.615	0.0274467
785.75	0.0274467
785.884	0.0268354
786.019	0.0275078
786.153	0.0273855
786.288	0.0272633
786.422	0.0275689
786.557	0.0275689
786.691	0.0268354
786.826	0.0267131
786.961	0.0279968
787.095	0.027141
787.23	0.0268354
787.364	0.0274467
787.499	0.0270799
787.633	0.0268965
787.768	0.027141
787.902	0.027141
788.037	0.0275078
788.172	0.0268354
788.306	0.0269576
788.441	0.0267743
788.575	0.0278134
788.71	0.0265297
788.844	0.0279357
788.979	0.0270188
789.113	0.0281191
789.248	0.0275689
789.383	0.026652
789.517	0.028547
789.652	0.0289749
789.786	0.0280579
789.921	0.0272022
790.055	0.0280579
790.19	0.0273855
790.324	0.0272022
790.459	0.0276301
790.594	0.0276912
790.728	0.0281802
790.863	0.0274467
790.997	0.0276912
791.132	0.027141
791.266	0.0275689
791.401	0.0267743
791.535	0.0273244
791.67	0.0279357
791.804	0.0272022
791.939	0.0268965
792.074	0.0283025
792.208	0.0279968
792.343	0.0273855
792.477	0.0278134
792.612	0.0273244
792.746	0.0268354
792.881	0.0268354
793.015	0.0276301
793.15	0.0274467
793.284	0.0276301
793.419	0.0278134
793.553	0.0276301
793.688	0.0272022
793.823	0.027141
793.957	0.0275078
794.092	0.0276912
794.226	0.0277523
794.361	0.0273244
794.495	0.0281802
794.63	0.0281802
794.764	0.0286081
794.899	0.0278134
795.033	0.0269576
795.168	0.0272633
795.302	0.0282413
795.437	0.0273855
795.572	0.0278134
795.706	0.0278134
795.841	0.0276301
795.975	0.0275078
796.11	0.0280579
796.244	0.0276912
796.379	0.0270799
796.513	0.0277523
796.648	0.0275078
796.782	0.0280579
796.917	0.0280579
797.051	0.0281802
797.186	0.0277523
797.32	0.0276301
797.455	0.0281802
797.589	0.0278134
797.724	0.0275078
797.859	0.0276301
797.993	0.0274467
798.128	0.0281802
798.262	0.0283025
798.397	0.0273855
798.531	0.0283025
798.666	0.0279968
798.8	0.0280579
798.935	0.0278746
799.069	0.0288526
799.204	0.0272633
799.338	0.0279357
799.473	0.0284247
799.607	0.0276301
799.742	0.0276912
799.876	0.0284858
800.011	0.0279357
800.145	0.0280579
800.28	0.0283025
800.414	0.0283025
800.549	0.0282413
800.683	0.0279968
800.818	0.0283636
800.953	0.0290971
801.087	0.0275078
801.222	0.0280579
801.356	0.0279357
801.491	0.0284858
801.625	0.0281191
801.76	0.0292194
801.894	0.0282413
802.029	0.0286081
802.163	0.0286692
802.298	0.0289137
802.432	0.0294028
802.567	0.0289137
802.701	0.0302586
802.836	0.0296473
802.97	0.028547
803.105	0.0305031
803.239	0.0295862
803.374	0.0290971
803.508	0.0293416
803.643	0.0294028
803.777	0.0288526
803.912	0.0291583
804.046	0.0306253
804.181	0.0303197
804.315	0.0302586
804.45	0.0301974
804.584	0.0306865
804.719	0.03142
804.853	0.0307476
804.988	0.0317868
805.122	0.0320313
805.257	0.03142
805.391	0.0330094
805.526	0.0322758
805.66	0.0332539
805.795	0.0331927
805.929	0.0336206
806.064	0.0339874
806.198	0.0351488
806.333	0.0353322
806.467	0.0363103
806.602	0.0370438
806.736	0.0389999
806.871	0.0412006
807.005	0.0412617
807.14	0.0449905
807.274	0.0501253
807.409	0.0768384
807.543	0.120912
807.678	0.144324
807.812	0.16578
807.947	0.236873
808.081	0.250932
808.216	0.307293
808.35	0.497035
808.485	0.688123
808.619	0.856959
808.754	0.977566
808.888	1
809.023	0.994376
809.157	0.993459
809.292	0.987346
809.426	0.983251
809.561	0.977627
809.695	0.965646
809.83	0.959044
809.964	0.775414
810.099	0.679626
810.233	0.743933
810.368	0.914298
810.502	0.507672
810.637	0.167981
810.771	0.0569106
810.906	0.0424843
811.04	0.0395501
811.175	0.0380219
811.309	0.0363714
811.444	0.0348432
811.578	0.0341708
811.713	0.0341708
811.847	0.0327648
811.982	0.0334373
812.116	0.0329482
812.251	0.0323981
812.385	0.0323981
812.519	0.0327037
812.654	0.0311755
812.788	0.0315423
812.923	0.0315423
813.057	0.0314811
813.192	0.0312978
813.326	0.030442
813.461	0.0301974
813.595	0.030442
813.73	0.0293416
813.864	0.0293416
813.999	0.0294639
814.133	0.0299529
814.268	0.0297084
814.402	0.0297084
814.537	0.0297084
814.671	0.0294639
814.806	0.0292194
814.94	0.0294028
815.075	0.0287304
815.209	0.0294028
815.344	0.029036
815.478	0.0289749
815.612	0.0283025
815.747	0.0297084
815.881	0.0281802
816.016	0.0283025
816.15	0.0287915
816.285	0.0293416
816.419	0.0287915
816.554	0.0290971
816.688	0.0294639
816.823	0.0283025
816.957	0.0284247
817.092	0.0281191
817.226	0.0282413
817.361	0.0293416
817.495	0.0276912
817.63	0.0281802
817.764	0.0290971
817.898	0.0284247
818.033	0.0277523
818.167	0.0284247
818.302	0.0276912
818.436	0.0284247
818.571	0.0268354
818.705	0.0272633
818.84	0.0279968
818.974	0.0289749
819.109	0.0279357
819.243	0.0274467
819.378	0.0272022
819.512	0.0278746
819.646	0.0274467
819.781	0.0278746
819.915	0.0276301
820.05	0.0278746
820.184	0.0284247
820.319	0.0281191
820.453	0.026652
820.588	0.0272022
820.722	0.0282413
820.857	0.0273244
820.991	0.0274467
821.126	0.0272022
821.26	0.0281802
821.394	0.0273855
821.529	0.0283636
821.663	0.0267131
821.798	0.0272022
821.932	0.0287915
822.067	0.0274467
822.201	0.0277523
822.336	0.0274467
822.47	0.0277523
822.605	0.0278746
822.739	0.0273855
822.873	0.0273244
823.008	0.0274467
823.142	0.0272022
823.277	0.0280579
823.411	0.0284247
823.546	0.0277523
823.68	0.0272633
823.815	0.0267743
823.949	0.0279357
824.083	0.0276301
824.218	0.0272633
824.352	0.0270799
824.487	0.0283025
824.621	0.0274467
824.756	0.0273244
824.89	0.0275689
825.025	0.0275689
825.159	0.0267131
825.293	0.0270799
825.428	0.0274467
825.562	0.0278134
825.697	0.0274467
825.831	0.0275078
825.966	0.0275689
826.1	0.0275689
826.235	0.0278746
826.369	0.0277523
826.503	0.0276301
826.638	0.0279357
826.772	0.0275078
826.907	0.0280579
827.041	0.0275078
827.176	0.0272633
827.31	0.0275689
827.445	0.0268965
827.579	0.0273855
827.713	0.0278134
827.848	0.0272633
827.982	0.0267743
828.117	0.0282413
828.251	0.0272633
828.386	0.0280579
828.52	0.0272633
828.654	0.0276301
828.789	0.0276912
828.923	0.0277523
829.058	0.0278746
829.192	0.0275689
829.327	0.0274467
829.461	0.0275689
829.596	0.0274467
829.73	0.0280579
829.864	0.0275689
829.999	0.0281802
830.133	0.027141
830.268	0.0272022
830.402	0.0280579
830.537	0.0269576
830.671	0.0269576
830.805	0.027141
830.94	0.0278134
831.074	0.0278746
831.209	0.0273244
831.343	0.0283636
831.478	0.0267131
831.612	0.0274467
831.746	0.027141
831.881	0.0278746
832.015	0.027141
832.15	0.0272022
832.284	0.0281191
832.418	0.0268965
832.553	0.0279968
832.687	0.0277523
832.822	0.0272633
832.956	0.027141
833.091	0.0270188
833.225	0.0277523
833.359	0.0274467
833.494	0.0278134
833.628	0.0270188
833.763	0.0281802
833.897	0.0278746
834.032	0.0270799
834.166	0.0275689
834.3	0.0276301
834.435	0.0267743
834.569	0.0283636
834.704	0.0272633
834.838	0.0274467
834.972	0.0273855
835.107	0.0273244
835.241	0.0277523
835.376	0.0269576
835.51	0.026652
835.645	0.0275689
835.779	0.0275689
835.913	0.0272633
836.048	0.0265909
836.182	0.0275078
836.317	0.0270188
836.451	0.0274467
836.585	0.027141
836.72	0.0267131
836.854	0.0280579
836.989	0.0279357
837.123	0.0277523
837.257	0.026652
837.392	0.0270188
837.526	0.0274467
837.661	0.0265909
837.795	0.0275078
837.929	0.0282413
838.064	0.026163
838.198	0.0275078
838.333	0.027141
838.467	0.0272022
838.602	0.0284247
838.736	0.0273855
838.87	0.0275078
839.005	0.0273244
839.139	0.0275689
839.274	0.0274467
839.408	0.0275078
839.542	0.0278134
839.677	0.0273244
839.811	0.0278746
839.946	0.0279357
840.08	0.0270188
840.214	0.0276301
840.349	0.0287304
840.483	0.0272022
840.618	0.0265297
840.752	0.0276912
840.886	0.027141
841.021	0.027141
841.155	0.0280579
841.29	0.0277523
841.424	0.0269576
841.558	0.0272022
841.693	0.0265297
841.827	0.0275689
841.961	0.0273244
842.096	0.0274467
842.23	0.0268965
842.365	0.0272633
842.499	0.0276301
842.633	0.0273244
842.768	0.0268354
842.902	0.0276912
843.037	0.0275078
843.171	0.0277523
843.305	0.0275078
843.44	0.0279968
843.574	0.0265297
843.709	0.0274467
843.843	0.0270799
843.977	0.0279968
844.112	0.026652
844.246	0.0276301
844.381	0.0268965
844.515	0.0268965
844.649	0.0273244
844.784	0.0282413
844.918	0.0276301
845.052	0.0267743
845.187	0.0276912
845.321	0.0268965
845.456	0.0276912
845.59	0.0273855
845.724	0.0274467
845.859	0.0280579
845.993	0.0275689
846.128	0.0279968
846.262	0.0276301
846.396	0.0278134
846.531	0.0268965
846.665	0.0275689
846.799	0.0275689
846.934	0.0276301
847.068	0.0276301
847.203	0.0270188
847.337	0.0269576
847.471	0.027141
847.606	0.0276301
847.74	0.0273855
847.874	0.0275689
848.009	0.0272633
848.143	0.0264075
848.278	0.0277523
848.412	0.0275078
848.546	0.0281191
848.681	0.0275689
848.815	0.026652
848.949	0.0273855
849.084	0.026652
849.218	0.0275689
849.353	0.0283025
849.487	0.0272633
849.621	0.0282413
849.756	0.0277523
849.89	0.0267131
850.024	0.0278746
850.159	0.0272633
850.293	0.0269576
850.428	0.0276301
850.562	0.0273244
850.696	0.0274467
850.831	0.0275689
850.965	0.026652
851.099	0.0272022
851.234	0.0264686
851.368	0.0270799
851.502	0.0268965
851.637	0.0279357
851.771	0.027141
851.906	0.0275078
852.04	0.0277523
852.174	0.0277523
852.309	0.0278746
852.443	0.0278746
852.577	0.0279968
852.712	0.0272022
852.846	0.0273244
852.98	0.0273855
853.115	0.0268354
853.249	0.0273244
853.384	0.0275078
853.518	0.0275078
853.652	0.0265297
853.787	0.0278134
853.921	0.0277523
854.055	0.0269576
854.19	0.0276301
854.324	0.027141
854.458	0.0270188
854.593	0.0277523
854.727	0.0274467
854.861	0.0268965
854.996	0.027141
855.13	0.0274467
855.265	0.0276301
855.399	0.0277523
855.533	0.0281191
855.668	0.0273244
855.802	0.0279357
855.936	0.0278134
856.071	0.0270799
856.205	0.0273855
856.339	0.0267743
856.474	0.0278746
856.608	0.0268965
856.742	0.0270799
856.877	0.0276912
857.011	0.0272022
857.145	0.0272022
857.28	0.0272633
857.414	0.0272022
857.549	0.0281802
857.683	0.0270799
857.817	0.027141
857.952	0.0273855
858.086	0.0273244
858.22	0.0274467
858.355	0.0274467
858.489	0.026652
858.623	0.0267131
858.758	0.0283025
858.892	0.0268965
859.026	0.0281802
859.161	0.0270188
859.295	0.0268354
859.429	0.0272633
859.564	0.0275689
859.698	0.0287304
859.832	0.0273244
859.967	0.0268354
860.101	0.027141
860.235	0.0270799
860.37	0.0265297
860.504	0.0267743
860.638	0.0281191
860.773	0.0275689
860.907	0.0276912
861.041	0.0272633
861.176	0.0283636
861.31	0.0272633
861.444	0.0268354
861.579	0.0270799
861.713	0.0278746
861.847	0.028547
861.982	0.0273244
862.116	0.026652
862.25	0.0281191
862.385	0.0270799
862.519	0.0273855
862.653	0.0272022
862.788	0.0267131
862.922	0.0278746
863.056	0.026652
863.191	0.0280579
863.325	0.0275689
863.459	0.0276301
863.594	0.0281191
863.728	0.0276912
863.862	0.027141
863.997	0.0272633
864.131	0.0267131
864.265	0.0265909
864.4	0.0275689
864.534	0.0265297
864.668	0.0273855
864.803	0.0281802
864.937	0.0270799
865.071	0.0275078
865.206	0.0263464
865.34	0.0277523
865.474	0.0269576
865.609	0.0268354
865.743	0.0278746
865.877	0.0268354
866.012	0.0276912
866.146	0.0272022
866.28	0.0268965
866.415	0.0273855
866.549	0.0270799
866.683	0.0268354
866.818	0.0278746
866.952	0.0262852
867.086	0.0281191
867.221	0.0270188
867.355	0.0275078
867.489	0.0279357
867.623	0.0276301
867.758	0.0268965
867.892	0.0270188
868.026	0.0280579
868.161	0.0267131
868.295	0.0287304
868.429	0.0278746
868.564	0.0281191
868.698	0.0274467
868.832	0.0277523
868.967	0.0278134
869.101	0.0272633
869.235	0.027141
869.37	0.0278134
869.504	0.0270188
869.638	0.0278134
869.773	0.0283025
869.907	0.0278134
870.041	0.0278746
870.175	0.0273855
870.31	0.0278134
870.444	0.0275689
870.578	0.0268965
870.713	0.0272633
870.847	0.0282413
870.981	0.0278746
871.116	0.0280579
871.25	0.0278746
871.384	0.0270188
871.519	0.027141
871.653	0.0270188
871.787	0.0275689
871.921	0.0275689
872.056	0.027141
872.19	0.0261018
872.324	0.0279968
872.459	0.0272633
872.593	0.0278134
872.727	0.0275689
872.862	0.0275078
872.996	0.0272633
873.13	0.0279968
873.264	0.0278746
873.399	0.0278134
873.533	0.0282413
873.667	0.0267743
873.802	0.0270188
873.936	0.0277523
874.07	0.0272022
874.205	0.0276912
874.339	0.0277523
874.473	0.0273855
874.607	0.0276301
874.742	0.0276301
874.876	0.0265297
875.01	0.0272633
875.145	0.0274467
875.279	0.0267743
875.413	0.0276912
875.548	0.0273244
875.682	0.028547
875.816	0.0272633
875.95	0.0269576
876.085	0.0276301
876.219	0.0275078
876.353	0.0276301
876.488	0.0265297
876.622	0.0278134
876.756	0.0276912
876.89	0.0272022
877.025	0.0276912
877.159	0.0273855
877.293	0.0273244
877.428	0.0275689
877.562	0.0276912
877.696	0.0273855
877.83	0.0276301
877.965	0.0272633
878.099	0.0286692
878.233	0.0272633
878.368	0.0273855
878.502	0.0280579
878.636	0.0276301
878.77	0.0273244
878.905	0.0275689
879.039	0.0269576
879.173	0.0274467
879.308	0.0269576
879.442	0.0273244
879.576	0.0272633
879.71	0.0284858
879.845	0.0275689
879.979	0.0278746
880.113	0.0272633
880.248	0.0264075
880.382	0.0279968
880.516	0.0268965
880.65	0.0275078
880.785	0.0279968
880.919	0.0272633
881.053	0.0275078
881.188	0.0274467
881.322	0.027141
881.456	0.0275689
881.59	0.0278746
881.725	0.0275078
881.859	0.0283025
881.993	0.0276301
882.127	0.0280579
882.262	0.0270799
882.396	0.0281191
882.53	0.0265297
882.665	0.0276301
882.799	0.0274467
882.933	0.0272022
883.067	0.0273244
883.202	0.0275078
883.336	0.0276301
883.47	0.0270799
883.604	0.0280579
883.739	0.0278134
883.873	0.0274467
884.007	0.0267743
884.142	0.0273855
884.276	0.0265909
884.41	0.0279968
884.544	0.0277523
884.679	0.0273855
884.813	0.0273855
884.947	0.0272633
885.081	0.0268354
885.216	0.0268965
885.35	0.0277523
885.484	0.0272022
885.618	0.0277523
885.753	0.0276301
885.887	0.0280579
886.021	0.0274467
886.155	0.0276301
886.29	0.0286081
886.424	0.0283636
886.558	0.0265297
886.693	0.0272633
886.827	0.0283025
886.961	0.0277523
887.095	0.0267743
887.23	0.0278134
887.364	0.0267743
887.498	0.0270799
887.632	0.0273244
887.767	0.0281191
887.901	0.0283636
888.035	0.0269576
888.169	0.0282413
888.304	0.0276301
888.438	0.0281802
888.572	0.0272633
888.706	0.027141
888.841	0.0276301
888.975	0.0276301
889.109	0.0267743
889.243	0.0276301
889.378	0.0276301
889.512	0.0275689
889.646	0.0275078
889.78	0.0272022
889.915	0.0278134
890.049	0.0272633
890.183	0.0273855
890.317	0.0284858
890.452	0.0273855
890.586	0.0272633
890.72	0.0268965
890.854	0.026652
890.989	0.0273855
891.123	0.0270799
891.257	0.0278746
891.391	0.0270188
891.526	0.0272633
891.66	0.0269576
891.794	0.0278134
891.928	0.0280579
892.063	0.0273244
892.197	0.0277523
892.331	0.0281802
892.465	0.0267131
892.6	0.0274467
892.734	0.0283636
892.868	0.0262241
893.002	0.0268965
893.137	0.0265297
893.271	0.0269576
893.405	0.0276912
893.539	0.0272633
893.674	0.0280579
893.808	0.0278134
893.942	0.0272633
894.076	0.027141
894.21	0.0273855
894.345	0.0270799
894.479	0.0272633
894.613	0.0275078
894.747	0.0280579
894.882	0.0270799
895.016	0.0270188
895.15	0.0273855
895.284	0.0273855
895.419	0.0279357
895.553	0.0267131
895.687	0.0278746
895.821	0.0274467
895.956	0.0281191
896.09	0.0270799
896.224	0.026652
896.358	0.027141
896.492	0.027141
896.627	0.0277523
896.761	0.027141
896.895	0.0272022
897.029	0.0269576
897.164	0.0281802
897.298	0.0278134
897.432	0.0272022
897.566	0.0286692
897.701	0.0275689
897.835	0.027141
897.969	0.0280579
898.103	0.0272633
898.237	0.0275078
898.372	0.0274467
898.506	0.0273855
898.64	0.028547
898.774	0.0278134
898.909	0.0272022
899.043	0.0268965
899.177	0.0262241
899.311	0.0279357
899.445	0.0273855
899.58	0.027141
899.714	0.0267131
899.848	0.0272022
899.982	0.0272633
900.117	0.0267131
900.251	0.027141
900.385	0.0275689
900.519	0.0264075
900.653	0.0277523
900.788	0.0269576
900.922	0.0270799
901.056	0.0270799
901.19	0.0275689
901.325	0.0280579
901.459	0.0269576
901.593	0.026652
901.727	0.0280579
901.861	0.0278134
901.996	0.0270799
902.13	0.0280579
902.264	0.0276912
902.398	0.0276301
902.532	0.0272022
902.667	0.0270188
902.801	0.0268354
902.935	0.0273244
903.069	0.0267743
903.204	0.027141
903.338	0.0283025
903.472	0.026163
903.606	0.027141
903.74	0.0279357
903.875	0.0276301
904.009	0.0274467
904.143	0.0270188
904.277	0.027141
904.411	0.0265909
904.546	0.027141
904.68	0.028547
904.814	0.0281191
904.948	0.0265909
905.082	0.0276912
905.217	0.0273855
905.351	0.0268965
905.485	0.0275689
905.619	0.0276912
905.753	0.0272022
905.888	0.0268354
906.022	0.0273855
906.156	0.0272022
906.29	0.0277523
906.424	0.0276912
906.559	0.0261018
906.693	0.0278134
906.827	0.0278134
906.961	0.0272633
907.095	0.0275078
907.23	0.0273855
907.364	0.0279357
907.498	0.027141
907.632	0.0279968
907.766	0.0272633
907.901	0.0268965
908.035	0.0270799
908.169	0.0279357
908.303	0.0272022
908.437	0.0272633
908.572	0.0273244
908.706	0.0267131
908.84	0.0275689
908.974	0.0279357
909.108	0.0273244
909.243	0.0272633
909.377	0.0273855
909.511	0.0282413
909.645	0.0270188
909.779	0.0278134
909.914	0.0270188
910.048	0.0281802
910.182	0.0278746
910.316	0.027141
910.45	0.0270188
910.585	0.0281802
910.719	0.0275078
910.853	0.0279968
910.987	0.0268965
911.121	0.0279968
911.255	0.0279968
911.39	0.0270799
911.524	0.0270188
911.658	0.0270799
911.792	0.0276301
911.926	0.0279968
912.061	0.0269576
912.195	0.0267743
912.329	0.026652
912.463	0.0273244
912.597	0.0275078
912.732	0.0280579
912.866	0.0278134
913	0.0283025
913.134	0.0267131
913.268	0.0276912
913.402	0.0272022
913.537	0.0273855
913.671	0.0269576
913.805	0.0273244
913.939	0.0283636
914.073	0.0275078
914.208	0.0274467
914.342	0.0275078
914.476	0.0267131
914.61	0.0273244
914.744	0.0265909
914.878	0.0277523
915.013	0.0279968
915.147	0.0278134
915.281	0.027141
915.415	0.0274467
915.549	0.0268354
915.683	0.026652
915.818	0.0276912
915.952	0.0273855
916.086	0.0275078
916.22	0.0268354
916.354	0.0268354
916.488	0.0277523
916.623	0.0275078
916.757	0.0270188
916.891	0.0272022
917.025	0.027141
917.159	0.0267131
917.293	0.027141
917.428	0.027141
917.562	0.0276301
917.696	0.0283636
917.83	0.0276301
917.964	0.0268965
918.098	0.0275689
918.233	0.0283636
918.367	0.0279357
918.501	0.0275689
918.635	0.0276301
918.769	0.0277523
918.903	0.0273244
919.038	0.0275689
919.172	0.0267131
919.306	0.0272633
919.44	0.0270188
919.574	0.0270188
919.708	0.0273244
919.843	0.0272022
919.977	0.0273244
920.111	0.0265909
920.245	0.0265909
920.379	0.0273855
920.513	0.0274467
920.648	0.0270799
920.782	0.0267743
920.916	0.0272633
921.05	0.0269576
921.184	0.0273244
921.318	0.0273855
921.453	0.0265297
921.587	0.0273855
921.721	0.0282413
921.855	0.0278134
921.989	0.0264686
922.123	0.0280579
922.257	0.0274467
922.392	0.0267743
922.526	0.0278134
922.66	0.0270188
922.794	0.0273855
922.928	0.0276301
923.062	0.026652
923.197	0.0274467
923.331	0.0275078
923.465	0.0272633
923.599	0.0278746
923.733	0.0273244
923.867	0.0275689
924.001	0.0276912
924.136	0.0278134
924.27	0.0274467
924.404	0.0276301
924.538	0.0272022
924.672	0.0277523
924.806	0.0273244
924.94	0.0272633
925.075	0.0276912
925.209	0.0272022
925.343	0.0278134
925.477	0.0265909
925.611	0.0270799
925.745	0.0268965
925.879	0.0268354
926.014	0.0272633
926.148	0.0272022
926.282	0.0278134
926.416	0.0267131
926.55	0.0268965
926.684	0.0267743
926.818	0.0275689
926.953	0.0276912
927.087	0.0275689
927.221	0.0263464
927.355	0.0272633
927.489	0.0279357
927.623	0.0275078
927.757	0.0275689
927.892	0.0275689
928.026	0.0269576
928.16	0.026652
928.294	0.0279357
928.428	0.0270799
928.562	0.0277523
928.696	0.0272022
928.831	0.0270799
928.965	0.0274467
929.099	0.027141
929.233	0.0263464
929.367	0.0273244
929.501	0.0269576
929.635	0.0272633
929.769	0.0281802
929.904	0.0267131
930.038	0.0273855
930.172	0.0280579
930.306	0.027141
930.44	0.0278134
930.574	0.0281191
930.708	0.0281802
930.843	0.0280579
930.977	0.027141
931.111	0.0274467
931.245	0.0275078
931.379	0.0276301
931.513	0.0269576
931.647	0.0269576
931.781	0.0272022
931.916	0.0272022
932.05	0.0270799
932.184	0.0274467
932.318	0.0275078
932.452	0.0278134
932.586	0.0268354
932.72	0.0273855
932.854	0.0265297
932.989	0.0273855
933.123	0.0273244
933.257	0.0275689
933.391	0.0277523
933.525	0.0278134
933.659	0.0276301
933.793	0.0272022
933.927	0.027141
934.061	0.0274467
934.196	0.0281191
934.33	0.0276301
934.464	0.0274467
934.598	0.026652
934.732	0.0272633
934.866	0.0274467
935	0.0274467
935.134	0.0273855
935.269	0.0269576
935.403	0.0278134
935.537	0.0277523
935.671	0.0274467
935.805	0.0265909
935.939	0.0268965
936.073	0.0273855
936.207	0.0276301
936.341	0.0267131
936.476	0.0272633
936.61	0.0265909
936.744	0.0269576
936.878	0.0274467
937.012	0.0267743
937.146	0.0283636
937.28	0.026652
937.414	0.0274467
937.548	0.0280579
937.683	0.0268354
937.817	0.0273244
937.951	0.0273244
938.085	0.0267131
938.219	0.0274467
938.353	0.0267743
938.487	0.0275689
938.621	0.0275689
938.755	0.0273244
938.889	0.027141
939.024	0.0270799
939.158	0.027141
939.292	0.0275689
939.426	0.0273855
939.56	0.0273855
939.694	0.0275078
939.828	0.0273855
939.962	0.0269576
940.096	0.0278134
940.231	0.0281191
940.365	0.0275078
940.499	0.0280579
940.633	0.0268354
940.767	0.0267743
940.901	0.0272022
941.035	0.0275078
941.169	0.0277523
941.303	0.026652
941.437	0.0267743
941.571	0.0263464
941.706	0.0268965
941.84	0.0267131
941.974	0.0269576
942.108	0.0281802
942.242	0.0284858
942.376	0.0268354
942.51	0.0277523
942.644	0.0277523
942.778	0.0273855
942.912	0.0276301
943.047	0.0273855
943.181	0.0273855
943.315	0.0273855
943.449	0.0272633
943.583	0.0281802
943.717	0.0272633
943.851	0.0268965
943.985	0.0276301
944.119	0.0281191
944.253	0.0276301
944.387	0.0270799
944.522	0.0277523
944.656	0.0265297
944.79	0.0274467
944.924	0.0278134
945.058	0.0277523
945.192	0.0273244
945.326	0.0274467
945.46	0.0277523
945.594	0.0265909
945.728	0.0275078
945.862	0.0276301
945.996	0.0269576
946.131	0.0276301
946.265	0.0265297
946.399	0.0273244
946.533	0.0273244
946.667	0.027141
946.801	0.0286692
946.935	0.0278746
947.069	0.0278134
947.203	0.0279968
947.337	0.0278134
947.471	0.0267743
947.605	0.0273244
947.739	0.0276301
947.874	0.0282413
948.008	0.0270799
948.142	0.027141
948.276	0.0275689
948.41	0.0269576
948.544	0.0277523
948.678	0.0270188
948.812	0.0265297
948.946	0.0272633
949.08	0.0276301
949.214	0.0275689
949.348	0.0276912
949.482	0.0269576
949.617	0.0272633
949.751	0.0273244
949.885	0.0274467
950.019	0.0272022
950.153	0.0275078
950.287	0.0279968
950.421	0.0272022
950.555	0.0270799
950.689	0.0273855
950.823	0.0272022
950.957	0.0278746
951.091	0.0274467
951.225	0.0280579
951.359	0.0273855
951.493	0.0281191
951.628	0.0276912
951.762	0.0273855
951.896	0.0276301
952.03	0.0263464
952.164	0.0272633
952.298	0.0267743
952.432	0.0278746
952.566	0.0278746
952.7	0.0275689
952.834	0.0273244
952.968	0.0268354
953.102	0.0276912
953.236	0.0277523
953.37	0.0283025
953.504	0.026652
953.639	0.0279357
953.773	0.0280579
953.907	0.0273244
954.041	0.0276301
954.175	0.0279357
954.309	0.0278134
954.443	0.0281191
954.577	0.0274467
954.711	0.0264686
954.845	0.0273244
954.979	0.0268965
955.113	0.0272022
955.247	0.0274467
955.381	0.0265909
955.515	0.0267743
955.649	0.0280579
955.783	0.0268965
955.917	0.0275689
956.052	0.0272633
956.186	0.0278746
956.32	0.0273244
956.454	0.0269576
956.588	0.0276912
956.722	0.0270188
956.856	0.0277523
956.99	0.0278746
957.124	0.0278134
957.258	0.0278746
957.392	0.0268354
957.526	0.0273855
957.66	0.0267743
957.794	0.0283025
957.928	0.0282413
958.062	0.0270188
958.196	0.0269576
958.33	0.0277523
958.464	0.0275689
958.598	0.028547
958.733	0.0275689
958.867	0.0281802
959.001	0.0268354
959.135	0.0273244
959.269	0.0272633
959.403	0.0277523
959.537	0.0277523
959.671	0.0276301
959.805	0.0279968
959.939	0.0272022
960.073	0.0276301
960.207	0.0276301
960.341	0.0276301
960.475	0.0283636
960.609	0.0273855
960.743	0.026652
960.877	0.0270799
961.011	0.026652
961.145	0.0270799
961.279	0.0281191
961.413	0.0269576
961.547	0.0267131
961.681	0.0281191
961.815	0.027141
961.949	0.0270188
962.083	0.0276301
962.218	0.0272633
962.352	0.0272022
962.486	0.0261018
962.62	0.0270799
962.754	0.0278134
962.888	0.0270799
963.022	0.0273855
963.156	0.0276301
963.29	0.0267743
963.424	0.0276912
963.558	0.0273244
963.692	0.0265909
963.826	0.0280579
963.96	0.0277523
964.094	0.0277523
964.228	0.0277523
964.362	0.0277523
964.496	0.0276912
964.63	0.0278134
964.764	0.0275078
964.898	0.0270188
965.032	0.0275689
965.166	0.027141
965.3	0.0272633
965.434	0.0272022
965.568	0.0274467
965.702	0.0272022
965.836	0.0276301
965.97	0.0275078
966.104	0.0270799
966.238	0.0267131
966.372	0.0275689
966.506	0.0284247
966.64	0.0269576
966.774	0.0269576
966.908	0.0274467
967.043	0.0265297
967.177	0.0273855
967.311	0.0273244
967.445	0.0276912
967.579	0.0276301
967.713	0.0279968
967.847	0.0275689
967.981	0.0270188
968.115	0.0275689
968.249	0.027141
968.383	0.0272633
968.517	0.0283025
968.651	0.027141
968.785	0.027141
968.919	0.0273244
969.053	0.0268354
969.187	0.0281191
969.321	0.0274467
969.455	0.0274467
969.589	0.0273855
969.723	0.0284858
969.857	0.026652
969.991	0.0270799
970.125	0.0277523
970.259	0.0276301
970.393	0.0273244
970.527	0.0276301
970.661	0.0279968
970.795	0.0273855
970.929	0.0273855
971.063	0.0275689
971.197	0.0281802
971.331	0.0276912
971.465	0.0276912
971.599	0.0268965
971.733	0.0272633
971.867	0.0274467
972.001	0.0270188
972.135	0.0272633
972.269	0.0268965
972.403	0.027141
972.537	0.0278134
972.671	0.0268354
972.805	0.0276912
972.939	0.0276912
973.073	0.0269576
973.207	0.0273244
973.341	0.0269576
973.475	0.0272022
973.609	0.0275689
973.743	0.0275078
973.877	0.0275689
974.011	0.0282413
974.145	0.0278746
974.279	0.0278134
974.413	0.0269576
974.547	0.0273244
974.681	0.0281802
974.815	0.0282413
974.949	0.027141
975.083	0.0272633
975.217	0.0275078
975.351	0.0273855
975.485	0.0270799
975.619	0.0273855
975.753	0.0278746
975.887	0.0270799
976.021	0.0273855
976.155	0.0273244
976.289	0.026652
976.423	0.0279968
976.557	0.0279968
976.691	0.0277523
976.825	0.0275078
976.959	0.0273244
977.093	0.0277523
977.227	0.0275078
977.361	0.0268965
977.495	0.0279968
977.629	0.0278746
977.763	0.0278746
977.897	0.0278134
978.031	0.0272022
978.165	0.0276912
978.299	0.0272022
978.433	0.0272022
978.567	0.0264686
978.701	0.0282413
978.835	0.0269576
978.969	0.0274467
979.103	0.0273855
979.237	0.0270188
979.371	0.0270799
979.505	0.0275078
979.639	0.0275689
979.773	0.0268354
979.907	0.0272633
980.041	0.0270188
980.175	0.0275689
980.308	0.0282413
980.442	0.0280579
980.576	0.0259185
980.71	0.0270799
980.844	0.0270799
980.978	0.0272022
981.112	0.0270188
981.246	0.0276301
981.38	0.0267131
981.514	0.0273855
981.648	0.0276301
981.782	0.0264075
981.916	0.0275078
982.05	0.0274467
982.184	0.0270188
982.318	0.026652
982.452	0.0269576
982.586	0.0278134
982.72	0.0272022
982.854	0.0267131
982.988	0.0281191
983.122	0.0278134
983.256	0.0275689
983.39	0.0283025
983.524	0.0276301
983.658	0.0284247
983.792	0.0276912
983.926	0.0275078
984.06	0.0269576
984.194	0.0274467
984.328	0.0278134
984.462	0.0270188
984.596	0.0282413
984.73	0.0275689
984.864	0.0280579
984.998	0.0274467
985.132	0.0272633
985.265	0.0270188
985.399	0.0275078
985.533	0.0269576
985.667	0.0277523
985.801	0.026652
985.935	0.027141
986.069	0.0272633
986.203	0.0275078
986.337	0.0278746
986.471	0.0281191
986.605	0.0273244
986.739	0.0267743
986.873	0.0270799
987.007	0.0277523
987.141	0.0269576
987.275	0.0267743
987.409	0.0273244
987.543	0.0273244
987.677	0.0282413
987.811	0.0268965
987.945	0.0275078
988.079	0.0269576
988.213	0.0268965
988.347	0.0276301
988.481	0.0274467
988.614	0.0276912
988.748	0.0277523
988.882	0.0273244
989.016	0.0282413
989.15	0.0269576
989.284	0.0272633
989.418	0.0282413
989.552	0.0275689
989.686	0.0278134
989.82	0.0281191
989.954	0.0276301
990.088	0.0268354
990.222	0.0278134
990.356	0.0282413
990.49	0.0273855
990.624	0.0273244
990.758	0.0278746
990.892	0.0269576
991.026	0.0269576
991.16	0.0283636
991.294	0.0272633
991.427	0.0270799
991.561	0.0272022
991.695	0.026652
991.829	0.0281191
991.963	0.0270188
992.097	0.0273244
992.231	0.026652
992.365	0.0283025
992.499	0.0273244
992.633	0.027141
992.767	0.0279968
992.901	0.0270799
993.035	0.0276912
993.169	0.0264686
993.303	0.0268965
993.437	0.0272022
993.571	0.0270188
993.704	0.0272633
993.838	0.0276301
993.972	0.0275078
994.106	0.0275078
994.24	0.0268965
994.374	0.0267743
994.508	0.0270799
994.642	0.0268965
994.776	0.0281802
994.91	0.0273855
995.044	0.0272633
995.178	0.0272022
995.312	0.0280579
995.446	0.0272633
995.58	0.0273855
995.714	0.0281191
995.847	0.0273855
995.981	0.0279968
996.115	0.0272022
996.249	0.0269576
996.383	0.0277523
996.517	0.0276912
996.651	0.0272633
996.785	0.0272633
996.919	0.0283025
997.053	0.0275689
997.187	0.0279357
997.321	0.0273855
997.455	0.0270799
997.589	0.0275689
997.722	0.0270188
997.856	0.0278134
997.99	0.0279357
998.124	0.0273855
998.258	0.0273855
998.392	0.0270799
998.526	0.0283025
998.66	0.0269576
998.794	0.0272633
998.928	0.0270799
999.062	0.026652
999.196	0.0278746
999.33	0.0272022
999.464	0.0276301
999.597	0.0272633
999.731	0.0267743
999.865	0.0268965
999.999	0.027141
1000.13	0.0273855
1000.27	0.0279357
1000.4	0.0279968
1000.53	0.0283025
1000.67	0.0263464
1000.8	0.0284858
1000.94	0.0278134
1001.07	0.0273244
1001.2	0.0275078
1001.34	0.0278746
1001.47	0.0272633
1001.61	0.0268965
1001.74	0.0268965
1001.87	0.0270188
1002.01	0.0276301
1002.14	0.026652
1002.28	0.0263464
1002.41	0.0272022
1002.54	0.0278746
1002.68	0.0272633
1002.81	0.0268965
1002.95	0.0276301
1003.08	0.0275078
1003.21	0.0273855
1003.35	0.0273855
1003.48	0.0270188
1003.61	0.0276301
1003.75	0.026652
1003.88	0.0283636
1004.02	0.0272022
1004.15	0.0267131
1004.28	0.0273855
1004.42	0.0265297
1004.55	0.028547
1004.69	0.0270799
1004.82	0.0268354
1004.95	0.0268354
1005.09	0.0268354
1005.22	0.0267743
1005.36	0.0273244
1005.49	0.0282413
1005.62	0.0281191
1005.76	0.0273244
1005.89	0.0278746
1006.03	0.0279357
1006.16	0.027141
1006.29	0.0269576
1006.43	0.0275078
1006.56	0.0276912
1006.69	0.0275078
1006.83	0.0277523
1006.96	0.0273244
1007.1	0.0276301
1007.23	0.0264075
1007.36	0.0272022
1007.5	0.0265909
1007.63	0.0270188
1007.77	0.0268354
1007.9	0.0272633
1008.03	0.0272022
1008.17	0.0276912
1008.3	0.0274467
1008.44	0.0272633
1008.57	0.0265909
1008.7	0.0272633
1008.84	0.0268965
1008.97	0.0280579
1009.1	0.0268965
1009.24	0.0273855
1009.37	0.0277523
1009.51	0.0276912
1009.64	0.0268965
1009.77	0.0265909
1009.91	0.0264075
1010.04	0.0278134
1010.18	0.0278746
1010.31	0.0274467
1010.44	0.0277523
1010.58	0.0275078
1010.71	0.0277523
1010.85	0.0273855
1010.98	0.0276301
1011.11	0.027141
1011.25	0.0275689
1011.38	0.0276912
1011.51	0.0275689
1011.65	0.0277523
1011.78	0.0281802
1011.92	0.0275689
1012.05	0.0275689
1012.18	0.0277523
1012.32	0.0270188
1012.45	0.0268354
1012.59	0.0275078
1012.72	0.0278134
1012.85	0.0289749
1012.99	0.0268965
1013.12	0.0276912
1013.26	0.0278134
1013.39	0.0267131
1013.52	0.0278746
1013.66	0.0269576
1013.79	0.027141
1013.92	0.0278134
1014.06	0.0273855
1014.19	0.0270188
1014.33	0.0272633
1014.46	0.0270188
1014.59	0.0270799
1014.73	0.0273855
1014.86	0.0273244
1015	0.0272022
1015.13	0.0262852
1015.26	0.0275689
1015.4	0.0279968
1015.53	0.0272633
1015.67	0.0270799
1015.8	0.0270188
1015.93	0.0278134
1016.07	0.0270799
1016.2	0.0270799
1016.33	0.0272633
1016.47	0.027141
1016.6	0.0267131
1016.74	0.0275078
1016.87	0.0265909
1017	0.0278134
1017.14	0.0275689
1017.27	0.027141
1017.41	0.0273244
1017.54	0.0277523
1017.67	0.0274467
1017.81	0.026652
1017.94	0.0272633
1018.07	0.0278746
1018.21	0.0276301
1018.34	0.0283636
1018.48	0.0270188
1018.61	0.0278746
1018.74	0.0275689
1018.88	0.0270799
1019.01	0.0276301
1019.15	0.0279968
1019.28	0.0278746
1019.41	0.0276301
1019.55	0.0273855
1019.68	0.0273244
1019.82	0.0279357
1019.95	0.0279357
1020.08	0.026652
1020.22	0.0272022
1020.35	0.027141
1020.48	0.027141
1020.62	0.0279357
1020.75	0.0282413
1020.89	0.0280579
1021.02	0.0269576
1021.15	0.026652
1021.29	0.028547
1021.42	0.0270799
1021.56	0.0277523
1021.69	0.0284247
1021.82	0.0273855
1021.96	0.0265297
1022.09	0.0274467
1022.22	0.0270799
1022.36	0.0278746
1022.49	0.0280579
1022.63	0.0289137
1022.76	0.0269576
1022.89	0.0274467
1023.03	0.0277523
1023.16	0.0283025
1023.3	0.0273855
1023.43	0.0270799
1023.56	0.0278134
1023.7	0.0270188
1023.83	0.0278134
1023.96	0.0273855
1024.1	0.0274467
1024.23	0.0270188
1024.37	0.0270799
1024.5	0.0272022
1024.63	0.0276301
1024.77	0.0272022
1024.9	0.0273855
1025.04	0.0279968
1025.17	0.0275078
1025.3	0.0272633
1025.44	0.027141
1025.57	0.0268965
1025.7	0.0278134
1025.84	0.0283025
1025.97	0.0274467
1026.11	0.0278746
1026.24	0.0267743
1026.37	0.0274467
1026.51	0.0275078
1026.64	0.0268354
1026.78	0.0272022
1026.91	0.0280579
1027.04	0.0278746
1027.18	0.0274467
1027.31	0.0268354
1027.44	0.0275078
1027.58	0.0272022
1027.71	0.0267743
1027.85	0.0270188
1027.98	0.0275689
1028.11	0.0268354
1028.25	0.0278746
1028.38	0.0278746
1028.52	0.0282413
1028.65	0.0273244
1028.78	0.0272633
1028.92	0.0275689
1029.05	0.0276301
1029.18	0.0276912
1029.32	0.0274467
1029.45	0.0278134
1029.59	0.0280579
1029.72	0.0276912
1029.85	0.0276912
1029.99	0.0277523
1030.12	0.0278134
1030.26	0.0275078
1030.39	0.0276912
1030.52	0.0270188
1030.66	0.0280579
1030.79	0.0276912
1030.92	0.0265297
1031.06	0.0272633
1031.19	0.027141
1031.33	0.0273244
1031.46	0.0268965
1031.59	0.0270188
1031.73	0.0277523
1031.86	0.0272633
1031.99	0.0277523
1032.13	0.0267131
1032.26	0.0277523
1032.4	0.0278134
1032.53	0.0273855
1032.66	0.0272022
1032.8	0.0273855
1032.93	0.0275078
1033.07	0.0278134
1033.2	0.0267131
1033.33	0.027141
1033.47	0.0264075
1033.6	0.0272633
1033.73	0.027141
1033.87	0.0278134
1034	0.0276301
1034.14	0.0280579
1034.27	0.0275078
1034.4	0.0269576
1034.54	0.0278134
1034.67	0.0273855
1034.81	0.0264075
1034.94	0.0272022
1035.07	0.0272633
1035.21	0.0268354
1035.34	0.0276301
1035.47	0.0268965
1035.61	0.0270799
1035.74	0.0283025
1035.88	0.0269576
1036.01	0.0269576
1036.14	0.0270188
1036.28	0.0273855
1036.41	0.0273244
1036.54	0.0268965
1036.68	0.0270799
1036.81	0.0276912
1036.95	0.0275689
1037.08	0.027141
1037.21	0.0267131
1037.35	0.0270799
1037.48	0.027141
1037.62	0.0273244
1037.75	0.0270799
1037.88	0.0268354
1038.02	0.0276301
1038.15	0.0265909
1038.28	0.0268354
1038.42	0.0275689
1038.55	0.0274467
1038.69	0.0279357
1038.82	0.0270188
1038.95	0.0273244
1039.09	0.027141
1039.22	0.0277523
1039.35	0.0269576
1039.49	0.0275078
1039.62	0.027141
1039.76	0.0274467
1039.89	0.0267743
1040.02	0.0276301
1040.16	0.0268965
1040.29	0.0265909
1040.43	0.0267743
1040.56	0.0279968
1040.69	0.0267743
1040.83	0.0265297
1040.96	0.0276912
1041.09	0.0276301
1041.23	0.027141
1041.36	0.0275689
1041.5	0.0275078
1041.63	0.026652
1041.76	0.0278134
1041.9	0.0272022
1042.03	0.0264686
1042.16	0.0275078
1042.3	0.0270188
1042.43	0.0277523
1042.57	0.0268354
1042.7	0.0274467
1042.83	0.0273855
1042.97	0.0270799
1043.1	0.0279968
1043.23	0.0269576
1043.37	0.0275689
1043.5	0.0276301
1043.64	0.0267131
1043.77	0.0279968
1043.9	0.026652
1044.04	0.0267743
1044.17	0.0267743
1044.31	0.0272633
1044.44	0.0272633
1044.57	0.0275078
1044.71	0.0276301
1044.84	0.0278134
1044.97	0.0267131
1045.11	0.0274467
1045.24	0.0270799
1045.38	0.0276301
1045.51	0.0281191
1045.64	0.0278746
1045.78	0.0274467
1045.91	0.0273855
1046.04	0.0276301
1046.18	0.0270188
1046.31	0.0273244
1046.45	0.0284858
1046.58	0.0276301
1046.71	0.027141
1046.85	0.0270188
1046.98	0.0278746
1047.11	0.0272633
1047.25	0.0281802
1047.38	0.0273855
1047.52	0.0277523
1047.65	0.0270188
1047.78	0.0272022
1047.92	0.0269576
1048.05	0.0276912
1048.18	0.0272633
1048.32	0.0273244
1048.45	0.0270188
1048.59	0.0283636
1048.72	0.0281191
1048.85	0.0272022
1048.99	0.0272022
1049.12	0.0273855
1049.25	0.0277523
1049.39	0.0270799
1049.52	0.0276301
1049.66	0.0277523
1049.79	0.0275689
1049.92	0.027141
1050.06	0.0270188
1050.19	0.0275078
1050.33	0.0273244
1050.46	0.0273855
1050.59	0.0275078
1050.73	0.0268354
1050.86	0.0269576
1050.99	0.0279357
1051.13	0.0265297
1051.26	0.0272633
1051.4	0.0265909
1051.53	0.0268354
1051.66	0.0270188
1051.8	0.0278134
1051.93	0.0269576
1052.06	0.0281802
1052.2	0.0270188
1052.33	0.0276912
1052.47	0.0273855
1052.6	0.0259796
1052.73	0.0265909
1052.87	0.0275078
1053	0.0273855
1053.13	0.0282413
1053.27	0.0275078
1053.4	0.0279968
1053.54	0.0273244
1053.67	0.0262852
1053.8	0.0269576
1053.94	0.0275689
1054.07	0.0275078
1054.2	0.0275078
1054.34	0.0272633
1054.47	0.0278746
1054.61	0.0275078
1054.74	0.0273244
1054.87	0.0269576
1055.01	0.0258573
1055.14	0.0278134
1055.27	0.0269576
1055.41	0.0269576
1055.54	0.0268354
1055.68	0.0274467
1055.81	0.0276301
1055.94	0.0269576
1056.08	0.0275078
1056.21	0.0270188
1056.34	0.0278134
1056.48	0.0275689
1056.61	0.0273244
1056.75	0.0276301
1056.88	0.0273855
1057.01	0.0277523
1057.15	0.0276301
1057.28	0.0275078
1057.41	0.0282413
1057.55	0.0274467
1057.68	0.0272633
1057.82	0.0270188
1057.95	0.0276301
1058.08	0.0267743
1058.22	0.0278746
1058.35	0.0275078
1058.48	0.0284247
1058.62	0.0272633
1058.75	0.0270188
1058.89	0.0276912
1059.02	0.0275689
1059.15	0.0274467
1059.29	0.0272633
1059.42	0.0273244
1059.55	0.0277523
1059.69	0.0276301
1059.82	0.0279357
1059.96	0.0279357
1060.09	0.0283636
1060.22	0.0275078
1060.36	0.0279968
1060.49	0.0273855
1060.62	0.0274467
1060.76	0.0270188
1060.89	0.0270188
1061.03	0.0270188
1061.16	0.0280579
1061.29	0.0275078
1061.43	0.0273244
1061.56	0.0276912
1061.69	0.0275689
1061.83	0.0275689
1061.96	0.0273244
1062.1	0.0265297
1062.23	0.0284858
1062.36	0.027141
1062.5	0.0276301
1062.63	0.0278746
1062.76	0.0279968
1062.9	0.0273244
1063.03	0.0277523
1063.17	0.0265909
1063.3	0.0277523
1063.43	0.0278134
1063.57	0.0272633
1063.7	0.0278746
1063.83	0.027141
1063.97	0.0276912
1064.1	0.0277523
1064.23	0.0268965
1064.37	0.0276301
1064.5	0.0269576
1064.64	0.0278746
1064.77	0.0279968
1064.9	0.0275078
1065.04	0.0276301
1065.17	0.0277523
1065.3	0.0274467
1065.44	0.0268965
1065.57	0.0276912
1065.71	0.0279357
1065.84	0.0278134
1065.97	0.027141
1066.11	0.0267131
1066.24	0.0283025
1066.37	0.0273244
1066.51	0.0278134
1066.64	0.0275689
1066.78	0.0272022
1066.91	0.0264075
1067.04	0.0283025
1067.18	0.0265909
1067.31	0.0281191
1067.44	0.0275689
1067.58	0.0283025
1067.71	0.0277523
1067.85	0.0272022
1067.98	0.0276301
1068.11	0.0275078
1068.25	0.0278746
1068.38	0.0267743
1068.51	0.0278134
1068.65	0.0270188
1068.78	0.0275078
1068.92	0.0274467
1069.05	0.0278134
1069.18	0.0276912
1069.32	0.0284247
1069.45	0.0277523
1069.58	0.0273855
1069.72	0.0269576
1069.85	0.0272633
1069.98	0.0273855
1070.12	0.0278746
1070.25	0.0277523
1070.39	0.0277523
1070.52	0.0267131
1070.65	0.0278746
1070.79	0.0275689
1070.92	0.0278746
1071.05	0.0269576
1071.19	0.0263464
1071.32	0.0276912
1071.46	0.0273244
1071.59	0.0275078
1071.72	0.0272633
1071.86	0.0275689
1071.99	0.0277523
1072.12	0.0273855
1072.26	0.0268354
1072.39	0.0277523
1072.53	0.0274467
1072.66	0.0263464
1072.79	0.0273855
1072.93	0.0279968
1073.06	0.0273244
1073.19	0.0275078
1073.33	0.0279968
1073.46	0.0274467
1073.59	0.0267131
1073.73	0.0272022
1073.86	0.0270799
1074	0.0278134
1074.13	0.0273244
1074.26	0.0268354
1074.4	0.0273244
1074.53	0.0273244
1074.66	0.0272022
1074.8	0.0276301
1074.93	0.0276912
1075.07	0.0268965
1075.2	0.0276301
1075.33	0.0275078
1075.47	0.0279968
1075.6	0.0267743
1075.73	0.0275078
1075.87	0.0276912
1076	0.0276301
1076.14	0.0268965
1076.27	0.0276912
1076.4	0.0272022
1076.54	0.0268965
1076.67	0.0275689
1076.8	0.027141
1076.94	0.0272633
1077.07	0.0267131
1077.2	0.0275689
1077.34	0.0275689
1077.47	0.0264686
1077.61	0.0276301
1077.74	0.0278746
1077.87	0.0274467
1078.01	0.0269576
1078.14	0.0269576
1078.27	0.0278134
1078.41	0.026652
1078.54	0.0278746
1078.68	0.0277523
1078.81	0.0269576
1078.94	0.0270188
1079.08	0.0275078
1079.21	0.0279968
1079.34	0.0279357
1079.48	0.0279968
1079.61	0.0278134
1079.74	0.0268354
1079.88	0.0276301
1080.01	0.0278746
1080.15	0.0272022
1080.28	0.0274467
1080.41	0.0283025
1080.55	0.0277523
1080.68	0.0278134
1080.81	0.0275689
1080.95	0.0267131
1081.08	0.0277523
1081.22	0.0281191
1081.35	0.0277523
1081.48	0.0273244
1081.62	0.0265909
1081.75	0.0264075
1081.88	0.0272633
1082.02	0.0279968
1082.15	0.0278134
1082.28	0.0272633
1082.42	0.0258573
1082.55	0.0283636
1082.69	0.0274467
1082.82	0.0270188
1082.95	0.027141
1083.09	0.0275078
1083.22	0.0273855
1083.35	0.0267131
1083.49	0.0273244
1083.62	0.0264686
1083.75	0.0272022
1083.89	0.0272633
1084.02	0.0275689
1084.16	0.0279357
1084.29	0.0269576
1084.42	0.0276912
1084.56	0.0278134
1084.69	0.0279968
1084.82	0.0272633
1084.96	0.0273855
1085.09	0.0270799
1085.23	0.0279357
1085.36	0.027141
1085.49	0.0270188
1085.63	0.0273855
1085.76	0.0279968
1085.89	0.0265297
1086.03	0.0272633
1086.16	0.027141
1086.29	0.0275689
1086.43	0.0273244
1086.56	0.027141
1086.7	0.0268965
1086.83	0.0272633
1086.96	0.0268965
1087.1	0.0272633
1087.23	0.0268965
1087.36	0.0279968
1087.5	0.0272022
1087.63	0.0282413
1087.76	0.0267743
1087.9	0.0275689
1088.03	0.0276301
1088.17	0.0268965
1088.3	0.0284247
1088.43	0.0278134
1088.57	0.0276912
1088.7	0.0272633
1088.83	0.0272022
1088.97	0.027141
1089.1	0.0277523
1089.24	0.0280579
1089.37	0.0268965
1089.5	0.0284858
1089.64	0.0273855
1089.77	0.0276912
1089.9	0.0272022
1090.04	0.0279968
1090.17	0.0277523
1090.3	0.0275689
1090.44	0.0269576
1090.57	0.0267131
1090.71	0.0277523
1090.84	0.0270799
1090.97	0.0267743
1091.11	0.0269576
1091.24	0.0275078
1091.37	0.0273244
1091.51	0.0272022
1091.64	0.0276912
1091.77	0.0272022
1091.91	0.0273244
1092.04	0.0274467
1092.18	0.0272022
1092.31	0.0270188
1092.44	0.0280579
1092.58	0.027141
1092.71	0.0265297
1092.84	0.0272022
1092.98	0.0273244
1093.11	0.0267743
1093.24	0.0278746
1093.38	0.0268965
1093.51	0.0273244
1093.65	0.0276912
1093.78	0.0268965
1093.91	0.0274467
1094.05	0.0276301
1094.18	0.0267743
1094.31	0.0268965
1094.45	0.0274467
1094.58	0.0273244
1094.71	0.0277523
1094.85	0.0273244
1094.98	0.0278746
1095.12	0.0281802
1095.25	0.0274467
1095.38	0.0273855
1095.52	0.0267743
1095.65	0.027141
1095.78	0.0273855
1095.92	0.026652
1096.05	0.0272633
1096.18	0.0273244
1096.32	0.0272022
1096.45	0.0272633
1096.59	0.0273244
1096.72	0.0278746
1096.85	0.0286081
1096.99	0.0269576
1097.12	0.0275078
1097.25	0.026652
1097.39	0.0278134
1097.52	0.026652
1097.65	0.0274467
1097.79	0.0274467
1097.92	0.0274467
1098.06	0.0273855
1098.19	0.027141
1098.32	0.0262852
1098.46	0.0275689
1098.59	0.0281802
1098.72	0.0278134
1098.86	0.0267743
1098.99	0.0268354
1099.12	0.0279357
1099.26	0.026652
1099.39	0.0277523
1099.53	0.0262852
1099.66	0.0273244
1099.79	0.0272633
1099.93	0.0276301
1100.06	0.0286692
1100.19	0.0273855
1100.33	0.0279968
1100.46	0.0279357
1100.59	0.026652
1100.73	0.027141
1100.86	0.0272022
1100.99	0.0281802
1101.13	0.0276301
1101.26	0.0276912
1101.4	0.0270188
1101.53	0.0273244
1101.66	0.0278134
1101.8	0.0273244
1101.93	0.0273855
1102.06	0.0268354
1102.2	0.0276301
1102.33	0.0275078
1102.46	0.0270188
1102.6	0.0279357
1102.73	0.0267131
1102.87	0.0273855
1103	0.0283636
1103.13	0.0278134
1103.27	0.0276301
1103.4	0.0277523
1103.53	0.027141
1103.67	0.0274467
1103.8	0.0279357
1103.93	0.0278746
1104.07	0.0273244
1104.2	0.0281191
1104.34	0.0281802
1104.47	0.0268965
1104.6	0.0279968
1104.74	0.0269576
1104.87	0.0275689
1105	0.0277523
1105.14	0.0273244
1105.27	0.027141
1105.4	0.027141
1105.54	0.0279357
1105.67	0.0270188
1105.8	0.0272022
1105.94	0.0269576
1106.07	0.0284247
1106.21	0.0274467
1106.34	0.0268354
1106.47	0.0274467
1106.61	0.0274467
1106.74	0.0273855
1106.87	0.0274467
1107.01	0.0268354
1107.14	0.0279357
1107.27	0.027141
1107.41	0.0270799
1107.54	0.026652

