Source: Spectrum Viewer

Chart: Pulse Spectrum

Series: 
Wavelength (nm)	S (a.u.)
617.638	0.0276506
617.773	0.0275896
617.908	0.0274675
618.043	0.0274065
618.178	0.0272844
618.313	0.0276506
618.448	0.0275285
618.583	0.0269181
618.718	0.026613
618.853	0.0272233
618.988	0.0272844
619.123	0.0277727
619.258	0.0284441
619.394	0.0275896
619.529	0.0274675
619.664	0.0276506
619.799	0.0283831
619.934	0.0265519
620.069	0.0270402
620.204	0.0276506
620.339	0.0279558
620.474	0.0275896
620.609	0.0274065
620.744	0.0269792
620.879	0.0270402
621.014	0.0288104
621.149	0.0270402
621.284	0.0276506
621.419	0.0281389
621.554	0.0272844
621.689	0.0276506
621.825	0.0274065
621.96	0.0285052
622.095	0.0272233
622.23	0.0282
622.365	0.0272844
622.5	0.0277727
622.635	0.0276506
622.77	0.0275896
622.905	0.0271623
623.04	0.026735
623.175	0.0280168
623.31	0.0274675
623.445	0.0282
623.58	0.0271623
623.715	0.0271623
623.85	0.0278337
623.985	0.0271623
624.12	0.0269792
624.255	0.0275896
624.39	0.0272233
624.525	0.0270402
624.661	0.0276506
624.796	0.0282
624.931	0.0264298
625.066	0.0272844
625.201	0.0274675
625.336	0.0265519
625.471	0.0272844
625.606	0.0275896
625.741	0.0273454
625.876	0.0280168
626.011	0.0280168
626.146	0.0269792
626.281	0.0284441
626.416	0.0272844
626.551	0.0274065
626.686	0.0271013
626.821	0.0277117
626.956	0.0274065
627.091	0.0269792
627.226	0.0280779
627.361	0.0275896
627.496	0.0280168
627.631	0.0273454
627.766	0.0278948
627.901	0.0283831
628.036	0.0275896
628.171	0.0272844
628.307	0.0272233
628.442	0.026674
628.577	0.0274675
628.712	0.0270402
628.847	0.0271623
628.982	0.0274065
629.117	0.0277117
629.252	0.0265519
629.387	0.0277117
629.522	0.0272844
629.657	0.0280168
629.792	0.0272844
629.927	0.0274675
630.062	0.0280168
630.197	0.0277727
630.332	0.0274065
630.467	0.0272844
630.602	0.0271013
630.737	0.0279558
630.872	0.0278337
631.007	0.0274675
631.142	0.026735
631.277	0.0273454
631.412	0.0269792
631.547	0.0273454
631.682	0.0279558
631.817	0.0281389
631.952	0.0278337
632.087	0.0275896
632.222	0.0269792
632.357	0.0280779
632.492	0.0272233
632.627	0.026735
632.762	0.0283831
632.897	0.0274065
633.032	0.0268571
633.167	0.0278337
633.302	0.0274065
633.437	0.0274065
633.572	0.0270402
633.707	0.0277117
633.842	0.0271623
633.978	0.0277117
634.113	0.0288714
634.248	0.0277117
634.383	0.026735
634.518	0.0273454
634.653	0.0281389
634.788	0.0278337
634.923	0.0275896
635.058	0.0278948
635.193	0.0275896
635.328	0.0274065
635.463	0.0278337
635.598	0.0271013
635.733	0.0280168
635.868	0.0286272
636.003	0.0280779
636.138	0.0274675
636.273	0.0276506
636.408	0.0273454
636.543	0.0277117
636.678	0.0276506
636.813	0.0276506
636.948	0.0273454
637.083	0.0275285
637.218	0.0270402
637.353	0.0272233
637.488	0.0272233
637.623	0.0274675
637.758	0.0274675
637.893	0.0280168
638.028	0.0269181
638.163	0.0270402
638.298	0.0272844
638.433	0.0278948
638.568	0.0275896
638.703	0.0270402
638.838	0.026735
638.973	0.0275285
639.108	0.0270402
639.243	0.0274675
639.378	0.0268571
639.513	0.0274675
639.648	0.026613
639.783	0.0282
639.918	0.0279558
640.053	0.0277117
640.188	0.0272233
640.323	0.0276506
640.458	0.0273454
640.593	0.0263078
640.728	0.0278337
640.863	0.0272844
640.998	0.0275285
641.133	0.0277117
641.268	0.0284441
641.403	0.0272233
641.538	0.0281389
641.673	0.0280168
641.808	0.0271013
641.943	0.0273454
642.078	0.0273454
642.213	0.0277117
642.348	0.0270402
642.483	0.0278337
642.618	0.0274065
642.753	0.0282
642.888	0.0272233
643.023	0.0272844
643.158	0.0279558
643.293	0.0278948
643.428	0.0268571
643.563	0.0280168
643.698	0.0269792
643.833	0.0272844
643.968	0.0274675
644.103	0.0275896
644.237	0.0274675
644.372	0.026674
644.507	0.0271623
644.642	0.0275896
644.777	0.0275896
644.912	0.0284441
645.047	0.0276506
645.182	0.0272844
645.317	0.0271623
645.452	0.0275285
645.587	0.0280168
645.722	0.0271013
645.857	0.028322
645.992	0.0274065
646.127	0.0274675
646.262	0.0275896
646.397	0.0275896
646.532	0.0271623
646.667	0.0283831
646.802	0.026674
646.937	0.0277727
647.072	0.0281389
647.207	0.0271013
647.342	0.0274675
647.477	0.0273454
647.612	0.0280168
647.747	0.0283831
647.882	0.0272233
648.017	0.0270402
648.152	0.0274065
648.287	0.0277117
648.422	0.0272233
648.557	0.0277727
648.692	0.0285052
648.827	0.0275896
648.962	0.0279558
649.097	0.0278337
649.232	0.0277727
649.367	0.0275285
649.502	0.0273454
649.637	0.0277727
649.772	0.0277117
649.906	0.0272233
650.041	0.0274065
650.176	0.0273454
650.311	0.0275285
650.446	0.0282
650.581	0.0278337
650.716	0.0270402
650.851	0.0277117
650.986	0.0276506
651.121	0.0275285
651.256	0.0274675
651.391	0.0287493
651.526	0.0270402
651.661	0.0270402
651.796	0.0281389
651.931	0.0281389
652.066	0.0269792
652.201	0.0275285
652.336	0.0272844
652.471	0.0272233
652.606	0.0277117
652.741	0.0265519
652.876	0.026674
653.011	0.0273454
653.146	0.0271013
653.281	0.0275896
653.415	0.0271013
653.55	0.0273454
653.685	0.0269792
653.82	0.0277727
653.955	0.0274065
654.09	0.0274675
654.225	0.0278948
654.36	0.0280168
654.495	0.0270402
654.63	0.0270402
654.765	0.0277117
654.9	0.0269181
655.035	0.0280168
655.17	0.0267961
655.305	0.0277117
655.44	0.0280779
655.575	0.0274675
655.71	0.0279558
655.845	0.0272233
655.98	0.0277117
656.115	0.0269792
656.25	0.028322
656.384	0.0274675
656.519	0.0271623
656.654	0.0271623
656.789	0.0274675
656.924	0.0271623
657.059	0.0267961
657.194	0.0270402
657.329	0.0267961
657.464	0.028261
657.599	0.0278337
657.734	0.0273454
657.869	0.0274675
658.004	0.0270402
658.139	0.0277727
658.274	0.0273454
658.409	0.0276506
658.544	0.0272233
658.679	0.0279558
658.813	0.0275896
658.948	0.0277117
659.083	0.0269181
659.218	0.0276506
659.353	0.0277727
659.488	0.026674
659.623	0.0271013
659.758	0.0278337
659.893	0.0282
660.028	0.0277727
660.163	0.0271623
660.298	0.0274675
660.433	0.0277727
660.568	0.0277117
660.703	0.026735
660.838	0.0285662
660.972	0.0273454
661.107	0.0274675
661.242	0.0277117
661.377	0.0280779
661.512	0.0277117
661.647	0.0272233
661.782	0.0275285
661.917	0.0273454
662.052	0.0269181
662.187	0.0272233
662.322	0.026674
662.457	0.0283831
662.592	0.0278948
662.727	0.0271623
662.862	0.0267961
662.996	0.0274675
663.131	0.0276506
663.266	0.0274065
663.401	0.0272233
663.536	0.0278337
663.671	0.026735
663.806	0.0276506
663.941	0.0267961
664.076	0.0267961
664.211	0.0268571
664.346	0.026735
664.481	0.0281389
664.616	0.0278337
664.75	0.0269792
664.885	0.0267961
665.02	0.0274065
665.155	0.0274065
665.29	0.0278948
665.425	0.0286272
665.56	0.0270402
665.695	0.0269792
665.83	0.0271623
665.965	0.026735
666.1	0.0270402
666.235	0.0272233
666.37	0.0272233
666.504	0.0276506
666.639	0.0275896
666.774	0.0269181
666.909	0.0271623
667.044	0.0270402
667.179	0.0271013
667.314	0.0272233
667.449	0.0273454
667.584	0.0276506
667.719	0.0278337
667.854	0.0275285
667.989	0.0273454
668.123	0.0269792
668.258	0.0276506
668.393	0.028261
668.528	0.0282
668.663	0.0275285
668.798	0.0271013
668.933	0.0274675
669.068	0.0277117
669.203	0.0272233
669.338	0.0275285
669.473	0.0280779
669.607	0.0272844
669.742	0.0276506
669.877	0.0277117
670.012	0.0271013
670.147	0.0271623
670.282	0.0269792
670.417	0.0278337
670.552	0.0278337
670.687	0.0277727
670.822	0.0276506
670.957	0.0278948
671.091	0.0270402
671.226	0.0272844
671.361	0.0267961
671.496	0.0268571
671.631	0.026735
671.766	0.0271623
671.901	0.0270402
672.036	0.0274675
672.171	0.0269792
672.306	0.0258194
672.44	0.0282
672.575	0.0269792
672.71	0.0275896
672.845	0.0278337
672.98	0.0279558
673.115	0.0275896
673.25	0.028322
673.385	0.0269181
673.52	0.0271623
673.655	0.0276506
673.789	0.0272844
673.924	0.0272844
674.059	0.0274065
674.194	0.0264298
674.329	0.0273454
674.464	0.0269181
674.599	0.0278948
674.734	0.0269181
674.869	0.0269792
675.003	0.0277727
675.138	0.0275896
675.273	0.0274065
675.408	0.0272844
675.543	0.0275896
675.678	0.0276506
675.813	0.026613
675.948	0.0275896
676.083	0.0280168
676.217	0.0275285
676.352	0.0274065
676.487	0.0269181
676.622	0.0276506
676.757	0.0280779
676.892	0.0285052
677.027	0.0278948
677.162	0.0284441
677.297	0.0281389
677.431	0.0274675
677.566	0.0275285
677.701	0.0271013
677.836	0.0277727
677.971	0.0269181
678.106	0.0269181
678.241	0.0280168
678.376	0.0274675
678.511	0.0270402
678.645	0.0274675
678.78	0.0278337
678.915	0.028322
679.05	0.0278337
679.185	0.0272844
679.32	0.0272233
679.455	0.0274065
679.59	0.0271013
679.724	0.0272233
679.859	0.0274065
679.994	0.028261
680.129	0.0280168
680.264	0.0277727
680.399	0.0271623
680.534	0.0272233
680.669	0.0275896
680.803	0.0276506
680.938	0.0270402
681.073	0.0272233
681.208	0.0276506
681.343	0.0272233
681.478	0.0268571
681.613	0.0277117
681.748	0.0264298
681.882	0.0277117
682.017	0.0280779
682.152	0.0271623
682.287	0.0274065
682.422	0.0269181
682.557	0.0270402
682.692	0.0271623
682.827	0.0281389
682.961	0.0278337
683.096	0.026613
683.231	0.0277117
683.366	0.0272233
683.501	0.0277117
683.636	0.0276506
683.771	0.0274675
683.906	0.0277117
684.04	0.0279558
684.175	0.0275285
684.31	0.0272233
684.445	0.0275896
684.58	0.0277727
684.715	0.0271013
684.85	0.0290545
684.984	0.0280168
685.119	0.028261
685.254	0.0273454
685.389	0.0275285
685.524	0.0267961
685.659	0.0271623
685.794	0.0272233
685.928	0.0269792
686.063	0.0274675
686.198	0.0274065
686.333	0.0278948
686.468	0.0276506
686.603	0.0274065
686.738	0.0281389
686.872	0.0275896
687.007	0.0278948
687.142	0.0279558
687.277	0.0274675
687.412	0.0273454
687.547	0.0276506
687.682	0.0261246
687.816	0.0283831
687.951	0.0269181
688.086	0.0269792
688.221	0.0274675
688.356	0.0274675
688.491	0.026674
688.626	0.0278948
688.76	0.0279558
688.895	0.0272233
689.03	0.0280168
689.165	0.0277117
689.3	0.0278337
689.435	0.0278337
689.57	0.0270402
689.704	0.026735
689.839	0.0272233
689.974	0.0276506
690.109	0.0278948
690.244	0.0273454
690.379	0.0272844
690.513	0.0275285
690.648	0.0267961
690.783	0.0280168
690.918	0.0272844
691.053	0.0278337
691.188	0.0277117
691.323	0.0278948
691.457	0.0273454
691.592	0.0280168
691.727	0.0274065
691.862	0.0269181
691.997	0.0272844
692.132	0.0270402
692.266	0.0268571
692.401	0.0269792
692.536	0.0277117
692.671	0.0272233
692.806	0.0277727
692.941	0.0274675
693.075	0.0273454
693.21	0.0277727
693.345	0.0274675
693.48	0.0284441
693.615	0.026735
693.75	0.0272844
693.885	0.0272233
694.019	0.0279558
694.154	0.0278948
694.289	0.0273454
694.424	0.0272844
694.559	0.0269792
694.694	0.0280168
694.828	0.026735
694.963	0.0272844
695.098	0.0272844
695.233	0.026613
695.368	0.0274675
695.503	0.0272233
695.637	0.0269792
695.772	0.0278337
695.907	0.0277727
696.042	0.0279558
696.177	0.026735
696.312	0.0274065
696.446	0.0274065
696.581	0.0272844
696.716	0.0269792
696.851	0.0271013
696.986	0.0274065
697.12	0.0269792
697.255	0.0280779
697.39	0.0277727
697.525	0.0282
697.66	0.0271013
697.795	0.0280168
697.929	0.0274675
698.064	0.0277117
698.199	0.0269792
698.334	0.0272233
698.469	0.0275285
698.604	0.0274065
698.738	0.0279558
698.873	0.0276506
699.008	0.0271013
699.143	0.0275896
699.278	0.0278337
699.412	0.0273454
699.547	0.0280168
699.682	0.0265519
699.817	0.0271013
699.952	0.0270402
700.087	0.0262467
700.221	0.026613
700.356	0.0273454
700.491	0.0274675
700.626	0.0279558
700.761	0.0282
700.895	0.0275896
701.03	0.0286272
701.165	0.0274675
701.3	0.0272233
701.435	0.0264298
701.57	0.0274675
701.704	0.0275896
701.839	0.0273454
701.974	0.0274675
702.109	0.0274675
702.244	0.0277117
702.378	0.0271013
702.513	0.0278337
702.648	0.0272233
702.783	0.0272233
702.918	0.0274675
703.052	0.0271623
703.187	0.0285052
703.322	0.0278948
703.457	0.0277727
703.592	0.0276506
703.727	0.0270402
703.861	0.0279558
703.996	0.0275896
704.131	0.0281389
704.266	0.0281389
704.401	0.0275896
704.535	0.0276506
704.67	0.0270402
704.805	0.0274065
704.94	0.0264909
705.075	0.0274675
705.209	0.0264298
705.344	0.0274065
705.479	0.0278337
705.614	0.0272233
705.749	0.0271013
705.883	0.0270402
706.018	0.0274675
706.153	0.0275896
706.288	0.0269181
706.423	0.0277117
706.557	0.0275896
706.692	0.0276506
706.827	0.0278337
706.962	0.0273454
707.097	0.0274065
707.231	0.0277117
707.366	0.0273454
707.501	0.0274675
707.636	0.0287493
707.771	0.0281389
707.905	0.0269792
708.04	0.0275896
708.175	0.0278337
708.31	0.0275896
708.445	0.0271013
708.579	0.0279558
708.714	0.0273454
708.849	0.0277117
708.984	0.0272233
709.118	0.0273454
709.253	0.0278337
709.388	0.0280779
709.523	0.0274065
709.658	0.0274675
709.792	0.0274675
709.927	0.0275285
710.062	0.0279558
710.197	0.0279558
710.332	0.0274675
710.466	0.026674
710.601	0.0271623
710.736	0.0269181
710.871	0.0265519
711.006	0.0280779
711.14	0.0279558
711.275	0.0269181
711.41	0.0274065
711.545	0.0280168
711.679	0.0273454
711.814	0.0272233
711.949	0.0267961
712.084	0.0278948
712.219	0.0278337
712.353	0.0280168
712.488	0.0275896
712.623	0.026735
712.758	0.026674
712.892	0.0281389
713.027	0.0272844
713.162	0.026613
713.297	0.0274065
713.432	0.0275896
713.566	0.0267961
713.701	0.0279558
713.836	0.0277727
713.971	0.0278948
714.105	0.0274675
714.24	0.026735
714.375	0.0277117
714.51	0.0271013
714.645	0.0275285
714.779	0.0270402
714.914	0.0278948
715.049	0.0272844
715.184	0.0274675
715.318	0.0269792
715.453	0.0272844
715.588	0.0280168
715.723	0.0276506
715.858	0.0270402
715.992	0.0276506
716.127	0.0277117
716.262	0.0268571
716.397	0.0274675
716.531	0.0277117
716.666	0.0273454
716.801	0.0286883
716.936	0.0283831
717.07	0.0275285
717.205	0.0277727
717.34	0.0276506
717.475	0.0274675
717.61	0.0269181
717.744	0.028322
717.879	0.0268571
718.014	0.0278337
718.149	0.026674
718.283	0.0280168
718.418	0.0275896
718.553	0.0271623
718.688	0.0271013
718.822	0.0275896
718.957	0.0273454
719.092	0.0275896
719.227	0.0282
719.361	0.0277117
719.496	0.0269181
719.631	0.0268571
719.766	0.0271623
719.9	0.0276506
720.035	0.0274675
720.17	0.0271623
720.305	0.0271623
720.44	0.0276506
720.574	0.0275285
720.709	0.026735
720.844	0.0280779
720.979	0.0277117
721.113	0.0275896
721.248	0.0278948
721.383	0.026674
721.518	0.0267961
721.652	0.0271013
721.787	0.0275285
721.922	0.0278337
722.057	0.0275285
722.191	0.0271623
722.326	0.0272844
722.461	0.0276506
722.596	0.0278948
722.73	0.0282
722.865	0.0270402
723	0.0271623
723.135	0.0280168
723.269	0.0278948
723.404	0.0272233
723.539	0.0277727
723.674	0.0270402
723.808	0.0271013
723.943	0.028261
724.078	0.0275285
724.213	0.0270402
724.347	0.026613
724.482	0.0273454
724.617	0.0275896
724.752	0.0271623
724.886	0.0269181
725.021	0.0275285
725.156	0.0285662
725.291	0.0272233
725.425	0.0282
725.56	0.0275285
725.695	0.026674
725.829	0.0280168
725.964	0.0273454
726.099	0.0276506
726.234	0.0279558
726.368	0.0276506
726.503	0.0264909
726.638	0.0274065
726.773	0.0280779
726.907	0.0272233
727.042	0.028261
727.177	0.0271623
727.312	0.0272844
727.446	0.0275896
727.581	0.0275285
727.716	0.0269792
727.851	0.0273454
727.985	0.0281389
728.12	0.0278948
728.255	0.0276506
728.389	0.028322
728.524	0.0280168
728.659	0.0278337
728.794	0.0272233
728.928	0.0279558
729.063	0.0280779
729.198	0.0275896
729.333	0.0274675
729.467	0.0277117
729.602	0.0273454
729.737	0.0271013
729.872	0.0274065
730.006	0.0275285
730.141	0.0279558
730.276	0.0268571
730.41	0.0275896
730.545	0.0277117
730.68	0.0274065
730.815	0.0276506
730.949	0.0271623
731.084	0.0275285
731.219	0.0278948
731.354	0.0281389
731.488	0.0278337
731.623	0.0268571
731.758	0.0283831
731.892	0.0271623
732.027	0.0272844
732.162	0.0281389
732.297	0.026674
732.431	0.0274675
732.566	0.0272844
732.701	0.0275896
732.835	0.0274675
732.97	0.0277117
733.105	0.0270402
733.24	0.0269792
733.374	0.0272233
733.509	0.0278337
733.644	0.0285052
733.779	0.0275896
733.913	0.0279558
734.048	0.0271623
734.183	0.0277117
734.317	0.0281389
734.452	0.0279558
734.587	0.026674
734.722	0.0272844
734.856	0.0277727
734.991	0.0275896
735.126	0.0277117
735.26	0.0275285
735.395	0.0274675
735.53	0.0270402
735.665	0.0274065
735.799	0.0276506
735.934	0.0269181
736.069	0.0270402
736.203	0.0274675
736.338	0.0278948
736.473	0.0274065
736.607	0.0271623
736.742	0.0274675
736.877	0.0272233
737.012	0.0275285
737.146	0.0278948
737.281	0.0280168
737.416	0.0279558
737.55	0.0273454
737.685	0.0271013
737.82	0.0284441
737.955	0.0268571
738.089	0.0274065
738.224	0.0275896
738.359	0.0274065
738.493	0.0280779
738.628	0.0269792
738.763	0.0272233
738.897	0.0278337
739.032	0.0275285
739.167	0.0275285
739.302	0.0284441
739.436	0.0280168
739.571	0.0276506
739.706	0.0275285
739.84	0.0282
739.975	0.0269181
740.11	0.0278948
740.244	0.0272844
740.379	0.0274675
740.514	0.0277117
740.649	0.0277727
740.783	0.026735
740.918	0.0286272
741.053	0.0267961
741.187	0.0270402
741.322	0.0275896
741.457	0.0268571
741.591	0.0285052
741.726	0.0279558
741.861	0.0271623
741.996	0.028261
742.13	0.0283831
742.265	0.0271623
742.4	0.0274675
742.534	0.0269181
742.669	0.0275285
742.804	0.0274065
742.938	0.0283831
743.073	0.0270402
743.208	0.0271623
743.342	0.0271013
743.477	0.0271623
743.612	0.026735
743.747	0.0277727
743.881	0.0269792
744.016	0.0271623
744.151	0.0265519
744.285	0.0274675
744.42	0.0270402
744.555	0.0277727
744.689	0.0274675
744.824	0.0267961
744.959	0.0262467
745.093	0.0269181
745.228	0.0272844
745.363	0.0274065
745.497	0.0274675
745.632	0.0269181
745.767	0.0275896
745.901	0.0274065
746.036	0.0278337
746.171	0.0278337
746.305	0.0277117
746.44	0.0278337
746.575	0.0271623
746.71	0.0272233
746.844	0.028322
746.979	0.0275285
747.114	0.0273454
747.248	0.0278337
747.383	0.0274675
747.518	0.0277117
747.652	0.0273454
747.787	0.0279558
747.922	0.0275896
748.056	0.0277117
748.191	0.0278337
748.326	0.0277117
748.46	0.0278948
748.595	0.0273454
748.73	0.0272844
748.864	0.0278948
748.999	0.0280168
749.134	0.028322
749.268	0.0269792
749.403	0.026674
749.538	0.0280168
749.672	0.0276506
749.807	0.0268571
749.942	0.0263688
750.076	0.0271013
750.211	0.0268571
750.346	0.0274675
750.48	0.0274675
750.615	0.0271623
750.75	0.0273454
750.884	0.0269181
751.019	0.0268571
751.154	0.0277117
751.288	0.0267961
751.423	0.0276506
751.558	0.0274675
751.692	0.0279558
751.827	0.0277727
751.962	0.0277117
752.096	0.0276506
752.231	0.0272844
752.366	0.0267961
752.5	0.0278948
752.635	0.0270402
752.77	0.0271013
752.904	0.0264909
753.039	0.026735
753.174	0.0277117
753.308	0.0271013
753.443	0.0272844
753.578	0.0270402
753.712	0.0278337
753.847	0.0286272
753.982	0.0274065
754.116	0.0274675
754.251	0.0275285
754.386	0.0278948
754.52	0.0270402
754.655	0.0275285
754.79	0.0277117
754.924	0.0278337
755.059	0.0272844
755.194	0.0279558
755.328	0.0278337
755.463	0.0275896
755.597	0.0280168
755.732	0.0282
755.867	0.0263078
756.001	0.0275285
756.136	0.0275896
756.271	0.0277117
756.405	0.0272233
756.54	0.0283831
756.675	0.0272844
756.809	0.0269792
756.944	0.0277727
757.079	0.0273454
757.213	0.0270402
757.348	0.0275285
757.483	0.0272844
757.617	0.0274675
757.752	0.0271013
757.887	0.0271013
758.021	0.0277727
758.156	0.0277727
758.29	0.0273454
758.425	0.0281389
758.56	0.0278948
758.694	0.0269792
758.829	0.0281389
758.964	0.0275896
759.098	0.0277727
759.233	0.0275896
759.368	0.0271623
759.502	0.0278948
759.637	0.0280168
759.772	0.0277117
759.906	0.026674
760.041	0.0278337
760.175	0.026735
760.31	0.0270402
760.445	0.0278337
760.579	0.026674
760.714	0.0278948
760.849	0.0274675
760.983	0.0268571
761.118	0.0277117
761.253	0.0277727
761.387	0.028322
761.522	0.0283831
761.656	0.0273454
761.791	0.0275896
761.926	0.0272233
762.06	0.0275896
762.195	0.0279558
762.33	0.0270402
762.464	0.0274065
762.599	0.0271013
762.733	0.0286272
762.868	0.0272844
763.003	0.0278337
763.137	0.0276506
763.272	0.0273454
763.407	0.0286272
763.541	0.0285662
763.676	0.0272233
763.811	0.0275285
763.945	0.0274065
764.08	0.0278337
764.214	0.0278948
764.349	0.0277117
764.484	0.0272844
764.618	0.0271623
764.753	0.0278337
764.888	0.026613
765.022	0.026735
765.157	0.0280168
765.291	0.0272233
765.426	0.026735
765.561	0.0280168
765.695	0.0272844
765.83	0.0278337
765.965	0.0275896
766.099	0.0271623
766.234	0.0283831
766.368	0.0275896
766.503	0.0276506
766.638	0.0277727
766.772	0.0281389
766.907	0.0271623
767.041	0.0279558
767.176	0.0273454
767.311	0.0279558
767.445	0.0280779
767.58	0.0277117
767.715	0.0277117
767.849	0.0280779
767.984	0.0284441
768.118	0.0275896
768.253	0.0274065
768.388	0.0269792
768.522	0.0280779
768.657	0.0275896
768.791	0.0269792
768.926	0.0285662
769.061	0.0278948
769.195	0.0275285
769.33	0.0270402
769.465	0.0272233
769.599	0.0269792
769.734	0.0268571
769.868	0.0279558
770.003	0.0274065
770.138	0.0286272
770.272	0.0277117
770.407	0.0271013
770.541	0.0280168
770.676	0.0269181
770.811	0.0269792
770.945	0.0271013
771.08	0.0271623
771.214	0.0271013
771.349	0.0280168
771.484	0.0272233
771.618	0.0280168
771.753	0.0273454
771.887	0.0280779
772.022	0.0272844
772.157	0.0268571
772.291	0.0277117
772.426	0.0279558
772.56	0.0272233
772.695	0.0274065
772.83	0.0274675
772.964	0.0275896
773.099	0.0272844
773.233	0.0269181
773.368	0.0275896
773.503	0.0271013
773.637	0.0269792
773.772	0.0272233
773.906	0.0271013
774.041	0.0283831
774.176	0.0272844
774.31	0.0264298
774.445	0.0269792
774.579	0.0276506
774.714	0.0267961
774.849	0.0276506
774.983	0.0283831
775.118	0.0283831
775.252	0.028261
775.387	0.0276506
775.522	0.0275896
775.656	0.0286272
775.791	0.0277117
775.925	0.0275285
776.06	0.0274065
776.195	0.0277117
776.329	0.0272233
776.464	0.0275285
776.598	0.0275896
776.733	0.0268571
776.868	0.0272233
777.002	0.0277117
777.137	0.0285662
777.271	0.0275896
777.406	0.0278337
777.54	0.0276506
777.675	0.0272233
777.81	0.0273454
777.944	0.0286883
778.079	0.0270402
778.213	0.0281389
778.348	0.0285052
778.483	0.0265519
778.617	0.0278948
778.752	0.0280168
778.886	0.0275896
779.021	0.0272844
779.155	0.0282
779.29	0.0269181
779.425	0.0272233
779.559	0.0278337
779.694	0.0283831
779.828	0.0268571
779.963	0.0272844
780.098	0.0269181
780.232	0.0273454
780.367	0.0280779
780.501	0.0277727
780.636	0.0275285
780.77	0.0272233
780.905	0.0278337
781.04	0.0274065
781.174	0.0275285
781.309	0.0281389
781.443	0.0279558
781.578	0.0277117
781.712	0.0275896
781.847	0.0264909
781.982	0.0271623
782.116	0.0271623
782.251	0.0273454
782.385	0.0277117
782.52	0.0271013
782.654	0.0272233
782.789	0.0263078
782.924	0.0272844
783.058	0.0277727
783.193	0.0279558
783.327	0.028261
783.462	0.0274065
783.596	0.0282
783.731	0.0276506
783.866	0.0285052
784	0.0268571
784.135	0.0279558
784.269	0.0280168
784.404	0.0282
784.538	0.0272233
784.673	0.0274065
784.808	0.0272844
784.942	0.0274065
785.077	0.0280168
785.211	0.0274065
785.346	0.0275285
785.48	0.0278948
785.615	0.0274065
785.75	0.0269181
785.884	0.0285662
786.019	0.0269181
786.153	0.0273454
786.288	0.0275896
786.422	0.0274065
786.557	0.0277117
786.691	0.0274675
786.826	0.028261
786.961	0.0269792
787.095	0.0280779
787.23	0.0274675
787.364	0.0268571
787.499	0.0270402
787.633	0.0272844
787.768	0.0279558
787.902	0.0268571
788.037	0.026735
788.172	0.0269181
788.306	0.0274065
788.441	0.0263078
788.575	0.0282
788.71	0.0270402
788.844	0.0279558
788.979	0.0272844
789.113	0.0281389
789.248	0.0281389
789.383	0.0273454
789.517	0.0274065
789.652	0.0272233
789.786	0.0267961
789.921	0.0277117
790.055	0.0277727
790.19	0.0279558
790.324	0.0275285
790.459	0.0268571
790.594	0.0271013
790.728	0.0272844
790.863	0.0277727
790.997	0.0280779
791.132	0.026735
791.266	0.028261
791.401	0.0278948
791.535	0.0280168
791.67	0.0272233
791.804	0.0282
791.939	0.0274065
792.074	0.0275896
792.208	0.0278337
792.343	0.0285052
792.477	0.0269792
792.612	0.0286883
792.746	0.026613
792.881	0.0286883
793.015	0.0274675
793.15	0.0278948
793.284	0.0272233
793.419	0.028322
793.553	0.0280168
793.688	0.0271013
793.823	0.0278337
793.957	0.0276506
794.092	0.0269792
794.226	0.0275285
794.361	0.0276506
794.495	0.0274675
794.63	0.0271013
794.764	0.0278337
794.899	0.0277117
795.033	0.0281389
795.168	0.0280168
795.302	0.0277727
795.437	0.0274675
795.572	0.0274675
795.706	0.0278948
795.841	0.0277117
795.975	0.0277727
796.11	0.0280779
796.244	0.0282
796.379	0.0274675
796.513	0.0272844
796.648	0.0274065
796.782	0.0272844
796.917	0.0272233
797.051	0.0275285
797.186	0.0271013
797.32	0.028322
797.455	0.0277117
797.589	0.0277727
797.724	0.0280779
797.859	0.0289324
797.993	0.0286883
798.128	0.028322
798.262	0.028322
798.397	0.028322
798.531	0.028322
798.666	0.0278948
798.8	0.0286883
798.935	0.0282
799.069	0.0282
799.204	0.0278948
799.338	0.0274675
799.473	0.028261
799.607	0.028261
799.742	0.0279558
799.876	0.0284441
800.011	0.0284441
800.145	0.0280779
800.28	0.0286883
800.414	0.0285662
800.549	0.0286272
800.683	0.0282
800.818	0.028322
800.953	0.0285052
801.087	0.0288104
801.222	0.0281389
801.356	0.0286883
801.491	0.0285052
801.625	0.0287493
801.76	0.0280779
801.894	0.0295428
802.029	0.0286883
802.163	0.028322
802.298	0.0276506
802.432	0.0282
802.567	0.0293597
802.701	0.0289935
802.836	0.0291155
802.97	0.0286272
803.105	0.0286883
803.239	0.0292987
803.374	0.0297259
803.508	0.0283831
803.643	0.029848
803.777	0.0294207
803.912	0.0289324
804.046	0.0294207
804.181	0.0291766
804.315	0.0288714
804.45	0.0303974
804.584	0.0299091
804.719	0.0299091
804.853	0.0305805
804.988	0.0293597
805.122	0.0302142
805.257	0.0316792
805.391	0.0314961
805.526	0.0305194
805.66	0.0303363
805.795	0.0300922
805.929	0.0308246
806.064	0.0311298
806.198	0.0320454
806.333	0.0319233
806.467	0.0322285
806.602	0.0325337
806.736	0.0330831
806.871	0.0338155
807.005	0.0348532
807.14	0.0339987
807.274	0.0343649
807.409	0.036074
807.543	0.0372337
807.678	0.037722
807.812	0.0390649
807.947	0.0399194
808.081	0.0415064
808.216	0.0427272
808.35	0.0449857
808.485	0.0508454
808.619	0.0583532
808.754	0.0779467
808.888	0.260636
809.023	0.894647
809.157	1
809.292	1
809.426	1
809.561	1
809.695	1
809.83	1
809.964	1
810.099	1
810.233	1
810.368	0.997131
810.502	1
810.637	0.991638
810.771	0.997131
810.906	0.986755
811.04	0.990539
811.175	0.976378
811.309	0.982543
811.444	0.957151
811.578	0.964414
811.713	0.542758
811.847	0.276201
811.982	0.129219
812.116	0.0632363
812.251	0.0494415
812.385	0.0448636
812.519	0.0428493
812.654	0.039187
812.788	0.0385155
812.923	0.0366233
813.057	0.0374779
813.192	0.0361961
813.326	0.0358909
813.461	0.034548
813.595	0.0340597
813.73	0.0340597
813.864	0.0340597
813.999	0.032961
814.133	0.033022
814.268	0.031435
814.402	0.0317402
814.537	0.0318013
814.671	0.0318623
814.806	0.0308857
814.94	0.0318623
815.075	0.0309467
815.209	0.0301532
815.344	0.0313129
815.478	0.0306415
815.612	0.0302753
815.747	0.0304584
815.881	0.0301532
816.016	0.0284441
816.15	0.0292376
816.285	0.029787
816.419	0.0288714
816.554	0.029787
816.688	0.0291155
816.823	0.0291766
816.957	0.0287493
817.092	0.0294207
817.226	0.0293597
817.361	0.0291155
817.495	0.0283831
817.63	0.0284441
817.764	0.0290545
817.898	0.0286272
818.033	0.0288104
818.167	0.0287493
818.302	0.0289324
818.436	0.0283831
818.571	0.028261
818.705	0.0288104
818.84	0.0285052
818.974	0.0283831
819.109	0.028322
819.243	0.0290545
819.378	0.0278948
819.512	0.0282
819.646	0.0272844
819.781	0.0281389
819.915	0.0285052
820.05	0.028261
820.184	0.0287493
820.319	0.0283831
820.453	0.0274065
820.588	0.028261
820.722	0.0277727
820.857	0.0277727
820.991	0.0278948
821.126	0.0280779
821.26	0.0280168
821.394	0.0279558
821.529	0.0286883
821.663	0.0277727
821.798	0.0277727
821.932	0.028322
822.067	0.0280168
822.201	0.0268571
822.336	0.0272844
822.47	0.0277117
822.605	0.0271013
822.739	0.0284441
822.873	0.0274065
823.008	0.0275285
823.142	0.0278337
823.277	0.0282
823.411	0.0278948
823.546	0.0278337
823.68	0.0291155
823.815	0.0272233
823.949	0.0288714
824.083	0.0282
824.218	0.0277117
824.352	0.0274065
824.487	0.0277727
824.621	0.0277727
824.756	0.0286272
824.89	0.0276506
825.025	0.0285662
825.159	0.0277117
825.293	0.0271013
825.428	0.0272233
825.562	0.0273454
825.697	0.0286883
825.831	0.0271623
825.966	0.0281389
826.1	0.0280168
826.235	0.0277117
826.369	0.0282
826.503	0.0271013
826.638	0.0268571
826.772	0.0264909
826.907	0.0285052
827.041	0.0271013
827.176	0.0271013
827.31	0.0274675
827.445	0.0282
827.579	0.0277117
827.713	0.0274675
827.848	0.0275896
827.982	0.0277727
828.117	0.0277727
828.251	0.0285662
828.386	0.0281389
828.52	0.0275285
828.654	0.0279558
828.789	0.0277727
828.923	0.0280779
829.058	0.0273454
829.192	0.0280779
829.327	0.0279558
829.461	0.028322
829.596	0.0277727
829.73	0.0279558
829.864	0.0271013
829.999	0.0280779
830.133	0.0276506
830.268	0.0282
830.402	0.0275285
830.537	0.0279558
830.671	0.0271013
830.805	0.0278337
830.94	0.0271013
831.074	0.028261
831.209	0.028322
831.343	0.0272233
831.478	0.0273454
831.612	0.0282
831.746	0.0275285
831.881	0.0273454
832.015	0.0274675
832.15	0.0279558
832.284	0.0271013
832.418	0.0270402
832.553	0.0275285
832.687	0.0278948
832.822	0.0279558
832.956	0.0274675
833.091	0.0287493
833.225	0.0272233
833.359	0.0280779
833.494	0.0280168
833.628	0.0277727
833.763	0.026735
833.897	0.0280779
834.032	0.0272233
834.166	0.0284441
834.3	0.028261
834.435	0.0274675
834.569	0.0273454
834.704	0.0272844
834.838	0.0274675
834.972	0.0273454
835.107	0.0277727
835.241	0.0278337
835.376	0.0271013
835.51	0.0274675
835.645	0.0271623
835.779	0.0278948
835.913	0.0274675
836.048	0.0275285
836.182	0.0280779
836.317	0.0274675
836.451	0.0274065
836.585	0.0275285
836.72	0.0281389
836.854	0.0268571
836.989	0.0274065
837.123	0.0282
837.257	0.0270402
837.392	0.0272844
837.526	0.0274675
837.661	0.0275896
837.795	0.0277117
837.929	0.0272233
838.064	0.0269181
838.198	0.0279558
838.333	0.0273454
838.467	0.0277117
838.602	0.0285662
838.736	0.0267961
838.87	0.0278948
839.005	0.0272233
839.139	0.0268571
839.274	0.0279558
839.408	0.0279558
839.542	0.0278337
839.677	0.0273454
839.811	0.0269792
839.946	0.0280168
840.08	0.0278337
840.214	0.0269181
840.349	0.0278948
840.483	0.0277117
840.618	0.0277117
840.752	0.0285052
840.886	0.0275896
841.021	0.0269181
841.155	0.0279558
841.29	0.0269181
841.424	0.0275896
841.558	0.0279558
841.693	0.0275896
841.827	0.0275896
841.961	0.028322
842.096	0.0269181
842.23	0.0275896
842.365	0.0268571
842.499	0.0280168
842.633	0.0277117
842.768	0.0286272
842.902	0.0274065
843.037	0.0284441
843.171	0.0277727
843.305	0.026735
843.44	0.0277727
843.574	0.026674
843.709	0.0278337
843.843	0.0274065
843.977	0.0269181
844.112	0.0279558
844.246	0.0269792
844.381	0.0269181
844.515	0.0273454
844.649	0.0278337
844.784	0.0274675
844.918	0.0275285
845.052	0.0276506
845.187	0.0275896
845.321	0.0269792
845.456	0.0273454
845.59	0.0269792
845.724	0.028261
845.859	0.0280168
845.993	0.0276506
846.128	0.0277117
846.262	0.0275285
846.396	0.0274675
846.531	0.0272233
846.665	0.0277117
846.799	0.0275896
846.934	0.0273454
847.068	0.0272844
847.203	0.0276506
847.337	0.0272844
847.471	0.0277117
847.606	0.0286883
847.74	0.0275896
847.874	0.0273454
848.009	0.028261
848.143	0.0270402
848.278	0.0280168
848.412	0.0276506
848.546	0.0277727
848.681	0.0275285
848.815	0.0277727
848.949	0.0272844
849.084	0.0285662
849.218	0.0272233
849.353	0.028322
849.487	0.0271013
849.621	0.0282
849.756	0.0285052
849.89	0.0275285
850.024	0.0275285
850.159	0.0290545
850.293	0.0272233
850.428	0.0274065
850.562	0.0276506
850.696	0.0277117
850.831	0.0271013
850.965	0.0279558
851.099	0.026735
851.234	0.0262467
851.368	0.0278948
851.502	0.0271623
851.637	0.0275285
851.771	0.0278337
851.906	0.0278948
852.04	0.0272844
852.174	0.0269792
852.309	0.0272844
852.443	0.0286272
852.577	0.0269181
852.712	0.0274675
852.846	0.0282
852.98	0.026613
853.115	0.0271623
853.249	0.0277117
853.384	0.0274675
853.518	0.0276506
853.652	0.0279558
853.787	0.0289935
853.921	0.0285052
854.055	0.0275285
854.19	0.0269792
854.324	0.0271623
854.458	0.0272844
854.593	0.0272233
854.727	0.0276506
854.861	0.0282
854.996	0.0278948
855.13	0.0271013
855.265	0.0278337
855.399	0.0277117
855.533	0.0272844
855.668	0.0274065
855.802	0.0277117
855.936	0.0275285
856.071	0.0270402
856.205	0.0275896
856.339	0.0282
856.474	0.0275896
856.608	0.0271013
856.742	0.0278337
856.877	0.0275896
857.011	0.0275285
857.145	0.0277117
857.28	0.0277727
857.414	0.0274675
857.549	0.0280779
857.683	0.0281389
857.817	0.0277117
857.952	0.0268571
858.086	0.0279558
858.22	0.0277117
858.355	0.0269181
858.489	0.0276506
858.623	0.028322
858.758	0.0278948
858.892	0.0274065
859.026	0.0275896
859.161	0.0269792
859.295	0.0277727
859.429	0.0281389
859.564	0.0281389
859.698	0.0274065
859.832	0.0275896
859.967	0.026613
860.101	0.0275285
860.235	0.0275896
860.37	0.0274675
860.504	0.0275285
860.638	0.0273454
860.773	0.0271623
860.907	0.0277727
861.041	0.0278337
861.176	0.0270402
861.31	0.0271013
861.444	0.028261
861.579	0.0269181
861.713	0.0277727
861.847	0.0271623
861.982	0.0272233
862.116	0.0270402
862.25	0.0277727
862.385	0.0278337
862.519	0.0276506
862.653	0.0269792
862.788	0.0281389
862.922	0.0277727
863.056	0.0273454
863.191	0.0274675
863.325	0.0277727
863.459	0.0275285
863.594	0.0279558
863.728	0.0272233
863.862	0.0271623
863.997	0.0277117
864.131	0.0276506
864.265	0.0273454
864.4	0.0278337
864.534	0.0282
864.668	0.0273454
864.803	0.0277117
864.937	0.0276506
865.071	0.0271623
865.206	0.0279558
865.34	0.0274675
865.474	0.0272844
865.609	0.0283831
865.743	0.0276506
865.877	0.0273454
866.012	0.0277727
866.146	0.0271623
866.28	0.0278337
866.415	0.0277117
866.549	0.0277727
866.683	0.0271013
866.818	0.0275896
866.952	0.0274065
867.086	0.026735
867.221	0.0273454
867.355	0.0272844
867.489	0.0269792
867.623	0.0274675
867.758	0.0278337
867.892	0.0270402
868.026	0.0271623
868.161	0.0271623
868.295	0.0281389
868.429	0.0273454
868.564	0.0275896
868.698	0.0276506
868.832	0.0278337
868.967	0.0274065
869.101	0.0272233
869.235	0.0285052
869.37	0.0272233
869.504	0.0275285
869.638	0.0264909
869.773	0.0278337
869.907	0.0271013
870.041	0.0274675
870.175	0.026735
870.31	0.0271623
870.444	0.0273454
870.578	0.026735
870.713	0.0275896
870.847	0.028322
870.981	0.0268571
871.116	0.0279558
871.25	0.0270402
871.384	0.0274675
871.519	0.0278337
871.653	0.0267961
871.787	0.0272233
871.921	0.0283831
872.056	0.0272233
872.19	0.0288104
872.324	0.0275896
872.459	0.0272844
872.593	0.0273454
872.727	0.0277727
872.862	0.0270402
872.996	0.0274675
873.13	0.0281389
873.264	0.0286883
873.399	0.0270402
873.533	0.0271623
873.667	0.0268571
873.802	0.0274065
873.936	0.0282
874.07	0.026674
874.205	0.0284441
874.339	0.0277117
874.473	0.0276506
874.607	0.0274675
874.742	0.0283831
874.876	0.0277727
875.01	0.0269792
875.145	0.0273454
875.279	0.0285052
875.413	0.0271623
875.548	0.0277727
875.682	0.0278337
875.816	0.0271013
875.95	0.0275285
876.085	0.0284441
876.219	0.0277117
876.353	0.0267961
876.488	0.0272233
876.622	0.0278337
876.756	0.0277117
876.89	0.0275896
877.025	0.0274065
877.159	0.0272844
877.293	0.0274065
877.428	0.0275285
877.562	0.0271013
877.696	0.0270402
877.83	0.0275285
877.965	0.0272233
878.099	0.0282
878.233	0.0283831
878.368	0.0278337
878.502	0.0278948
878.636	0.0275896
878.77	0.0280168
878.905	0.0276506
879.039	0.0269181
879.173	0.0277117
879.308	0.0271623
879.442	0.0277727
879.576	0.0271013
879.71	0.028261
879.845	0.0272844
879.979	0.0271623
880.113	0.026674
880.248	0.0277117
880.382	0.0274065
880.516	0.0273454
880.65	0.0272844
880.785	0.0270402
880.919	0.0285052
881.053	0.0272233
881.188	0.0269792
881.322	0.0280168
881.456	0.0279558
881.59	0.0269792
881.725	0.0280168
881.859	0.0275285
881.993	0.0278948
882.127	0.0274675
882.262	0.0270402
882.396	0.0274675
882.53	0.0262467
882.665	0.0279558
882.799	0.0269181
882.933	0.0269792
883.067	0.0274065
883.202	0.0272233
883.336	0.0274675
883.47	0.0271013
883.604	0.0272844
883.739	0.0283831
883.873	0.0269181
884.007	0.0274675
884.142	0.0263078
884.276	0.0269181
884.41	0.0279558
884.544	0.0267961
884.679	0.0275285
884.813	0.0271623
884.947	0.0274675
885.081	0.0271013
885.216	0.0276506
885.35	0.0276506
885.484	0.0276506
885.618	0.028261
885.753	0.0275285
885.887	0.0278337
886.021	0.0275285
886.155	0.0279558
886.29	0.0285662
886.424	0.0273454
886.558	0.0285052
886.693	0.0275285
886.827	0.0273454
886.961	0.0269181
887.095	0.0272844
887.23	0.0279558
887.364	0.0286883
887.498	0.0273454
887.632	0.0276506
887.767	0.0285052
887.901	0.0277727
888.035	0.0273454
888.169	0.0273454
888.304	0.0270402
888.438	0.0267961
888.572	0.0275285
888.706	0.026613
888.841	0.0276506
888.975	0.0269792
889.109	0.0276506
889.243	0.0274675
889.378	0.0280779
889.512	0.0272844
889.646	0.0278337
889.78	0.0277117
889.915	0.0274675
890.049	0.0273454
890.183	0.0277117
890.317	0.0280168
890.452	0.0274675
890.586	0.0273454
890.72	0.0273454
890.854	0.0276506
890.989	0.028261
891.123	0.0277727
891.257	0.0281389
891.391	0.0278948
891.526	0.0276506
891.66	0.026674
891.794	0.028322
891.928	0.0269181
892.063	0.0267961
892.197	0.0277727
892.331	0.0276506
892.465	0.026613
892.6	0.0275285
892.734	0.0270402
892.868	0.0279558
893.002	0.0271623
893.137	0.0276506
893.271	0.0277117
893.405	0.0274065
893.539	0.0270402
893.674	0.0279558
893.808	0.0277727
893.942	0.0280168
894.076	0.0272844
894.21	0.0280168
894.345	0.0276506
894.479	0.0276506
894.613	0.0274675
894.747	0.0276506
894.882	0.0280168
895.016	0.0283831
895.15	0.0280779
895.284	0.0279558
895.419	0.0274065
895.553	0.0269181
895.687	0.0272844
895.821	0.0277727
895.956	0.0275285
896.09	0.0279558
896.224	0.0273454
896.358	0.0274065
896.492	0.0277727
896.627	0.0275896
896.761	0.0272844
896.895	0.0273454
897.029	0.0275285
897.164	0.0278337
897.298	0.0274065
897.432	0.0275285
897.566	0.0278948
897.701	0.0280779
897.835	0.0263688
897.969	0.0287493
898.103	0.0277727
898.237	0.0267961
898.372	0.0269181
898.506	0.0281389
898.64	0.028261
898.774	0.0270402
898.909	0.0276506
899.043	0.028322
899.177	0.0272844
899.311	0.0274675
899.445	0.0268571
899.58	0.0268571
899.714	0.0271623
899.848	0.0272233
899.982	0.0277117
900.117	0.0276506
900.251	0.0279558
900.385	0.0279558
900.519	0.0269792
900.653	0.028322
900.788	0.0278948
900.922	0.0271013
901.056	0.0271013
901.19	0.0271013
901.325	0.0275285
901.459	0.0271623
901.593	0.0272233
901.727	0.0269792
901.861	0.0280168
901.996	0.0275896
902.13	0.0273454
902.264	0.026613
902.398	0.0267961
902.532	0.0280779
902.667	0.0275285
902.801	0.0278337
902.935	0.0281389
903.069	0.0271013
903.204	0.0275896
903.338	0.0277117
903.472	0.0269792
903.606	0.0274675
903.74	0.0272844
903.875	0.0275285
904.009	0.0279558
904.143	0.0276506
904.277	0.0271623
904.411	0.0275285
904.546	0.0282
904.68	0.0272233
904.814	0.0267961
904.948	0.0271013
905.082	0.0264298
905.217	0.0269792
905.351	0.0272844
905.485	0.0273454
905.619	0.0268571
905.753	0.026613
905.888	0.0274675
906.022	0.0276506
906.156	0.026674
906.29	0.0273454
906.424	0.0269792
906.559	0.0275285
906.693	0.0271623
906.827	0.0275285
906.961	0.0272844
907.095	0.0283831
907.23	0.0272233
907.364	0.0271623
907.498	0.0274675
907.632	0.0274675
907.766	0.0284441
907.901	0.0280779
908.035	0.0274065
908.169	0.0269792
908.303	0.0264909
908.437	0.026735
908.572	0.0271013
908.706	0.0275285
908.84	0.0279558
908.974	0.0273454
909.108	0.0278337
909.243	0.0279558
909.377	0.0275285
909.511	0.0273454
909.645	0.0277727
909.779	0.0269792
909.914	0.026613
910.048	0.0268571
910.182	0.0274675
910.316	0.0285052
910.45	0.0273454
910.585	0.0270402
910.719	0.0271623
910.853	0.0275896
910.987	0.0269792
911.121	0.0286272
911.255	0.0272844
911.39	0.0274675
911.524	0.0267961
911.658	0.0279558
911.792	0.0271013
911.926	0.0275285
912.061	0.0277117
912.195	0.0277727
912.329	0.0274065
912.463	0.0268571
912.597	0.0275896
912.732	0.0275285
912.866	0.0275285
913	0.0274675
913.134	0.0271623
913.268	0.028261
913.402	0.0270402
913.537	0.0275285
913.671	0.0275896
913.805	0.0280779
913.939	0.0280168
914.073	0.0271623
914.208	0.0277727
914.342	0.0274065
914.476	0.0274675
914.61	0.0275285
914.744	0.0269792
914.878	0.0272844
915.013	0.0278337
915.147	0.026674
915.281	0.0271623
915.415	0.0272844
915.549	0.0267961
915.683	0.0282
915.818	0.0270402
915.952	0.0278948
916.086	0.0272844
916.22	0.0282
916.354	0.0275285
916.488	0.0274065
916.623	0.0276506
916.757	0.026735
916.891	0.0273454
917.025	0.0278948
917.159	0.0269181
917.293	0.0272233
917.428	0.0267961
917.562	0.0272233
917.696	0.0274065
917.83	0.0269181
917.964	0.0281389
918.098	0.0269181
918.233	0.0279558
918.367	0.0278948
918.501	0.0278337
918.635	0.0277727
918.769	0.0280779
918.903	0.0274675
919.038	0.028261
919.172	0.0269792
919.306	0.0268571
919.44	0.0272844
919.574	0.0275285
919.708	0.0271623
919.843	0.0271013
919.977	0.0274675
920.111	0.0281389
920.245	0.0272844
920.379	0.0285052
920.513	0.0281389
920.648	0.0272844
920.782	0.0277117
920.916	0.0272233
921.05	0.0272844
921.184	0.0277727
921.318	0.0271623
921.453	0.028322
921.587	0.0272233
921.721	0.0280168
921.855	0.0278337
921.989	0.0274065
922.123	0.0274675
922.257	0.0276506
922.392	0.0274675
922.526	0.0274675
922.66	0.0274675
922.794	0.0279558
922.928	0.0277117
923.062	0.026735
923.197	0.0277727
923.331	0.0275896
923.465	0.0269181
923.599	0.0273454
923.733	0.0271623
923.867	0.0277727
924.001	0.0272233
924.136	0.0267961
924.27	0.0284441
924.404	0.0277117
924.538	0.0277117
924.672	0.0278337
924.806	0.0280779
924.94	0.0273454
925.075	0.0278948
925.209	0.026613
925.343	0.0277117
925.477	0.0267961
925.611	0.0265519
925.745	0.0277117
925.879	0.0277727
926.014	0.0269792
926.148	0.0280779
926.282	0.0277117
926.416	0.0273454
926.55	0.0273454
926.684	0.0282
926.818	0.0275285
926.953	0.0271623
927.087	0.0271623
927.221	0.0272844
927.355	0.0275896
927.489	0.0278337
927.623	0.0275896
927.757	0.0274675
927.892	0.0271623
928.026	0.0284441
928.16	0.0274065
928.294	0.0276506
928.428	0.0277117
928.562	0.0279558
928.696	0.0280779
928.831	0.0277117
928.965	0.0279558
929.099	0.0279558
929.233	0.0278337
929.367	0.0273454
929.501	0.0268571
929.635	0.0277117
929.769	0.0277117
929.904	0.0280779
930.038	0.0275285
930.172	0.0274675
930.306	0.0280779
930.44	0.0272844
930.574	0.0277117
930.708	0.0285052
930.843	0.0275285
930.977	0.0260636
931.111	0.0271623
931.245	0.0274675
931.379	0.0269181
931.513	0.0271013
931.647	0.0277727
931.781	0.0284441
931.916	0.0280779
932.05	0.0267961
932.184	0.0279558
932.318	0.0273454
932.452	0.0272844
932.586	0.0270402
932.72	0.026735
932.854	0.0275896
932.989	0.0272233
933.123	0.0272233
933.257	0.0271013
933.391	0.0277117
933.525	0.0271623
933.659	0.0276506
933.793	0.026613
933.927	0.0275285
934.061	0.0274065
934.196	0.0269792
934.33	0.0279558
934.464	0.0262467
934.598	0.0273454
934.732	0.0278337
934.866	0.0269181
935	0.0272844
935.134	0.0278337
935.269	0.026735
935.403	0.0277727
935.537	0.0272233
935.671	0.0271623
935.805	0.0279558
935.939	0.0271013
936.073	0.0283831
936.207	0.0274675
936.341	0.0268571
936.476	0.0286272
936.61	0.0277117
936.744	0.0273454
936.878	0.0281389
937.012	0.0273454
937.146	0.0274675
937.28	0.0274675
937.414	0.0271623
937.548	0.0280168
937.683	0.0272233
937.817	0.0277727
937.951	0.0275285
938.085	0.0276506
938.219	0.028322
938.353	0.0273454
938.487	0.0282
938.621	0.0280779
938.755	0.0277117
938.889	0.0277117
939.024	0.0277117
939.158	0.0278948
939.292	0.028261
939.426	0.0277117
939.56	0.028261
939.694	0.0277117
939.828	0.0278337
939.962	0.0285662
940.096	0.0279558
940.231	0.0274675
940.365	0.0276506
940.499	0.0271623
940.633	0.0278337
940.767	0.0275285
940.901	0.0279558
941.035	0.0272844
941.169	0.0281389
941.303	0.0286883
941.437	0.0276506
941.571	0.0272233
941.706	0.0274675
941.84	0.0272233
941.974	0.0280779
942.108	0.0276506
942.242	0.0273454
942.376	0.028261
942.51	0.0271623
942.644	0.0274065
942.778	0.0269181
942.912	0.0274065
943.047	0.0276506
943.181	0.0272233
943.315	0.026613
943.449	0.0272233
943.583	0.0275285
943.717	0.0264909
943.851	0.0280168
943.985	0.0272233
944.119	0.0276506
944.253	0.0280779
944.387	0.0272233
944.522	0.0281389
944.656	0.0278948
944.79	0.0268571
944.924	0.0277727
945.058	0.0271013
945.192	0.0270402
945.326	0.0274675
945.46	0.0274675
945.594	0.0284441
945.728	0.0277727
945.862	0.0275285
945.996	0.0281389
946.131	0.026674
946.265	0.0279558
946.399	0.0283831
946.533	0.0279558
946.667	0.0271623
946.801	0.0269792
946.935	0.0275896
947.069	0.0269792
947.203	0.0280779
947.337	0.0270402
947.471	0.0272233
947.605	0.0275285
947.739	0.0262467
947.874	0.0279558
948.008	0.0276506
948.142	0.0271623
948.276	0.0275896
948.41	0.0264909
948.544	0.0281389
948.678	0.0269181
948.812	0.0267961
948.946	0.0273454
949.08	0.0278948
949.214	0.0280168
949.348	0.0275285
949.482	0.0280779
949.617	0.0273454
949.751	0.0273454
949.885	0.0277727
950.019	0.0272844
950.153	0.0271623
950.287	0.0277727
950.421	0.0275896
950.555	0.0274675
950.689	0.0280779
950.823	0.0287493
950.957	0.0277727
951.091	0.0274065
951.225	0.0270402
951.359	0.0274675
951.493	0.0268571
951.628	0.026674
951.762	0.0276506
951.896	0.0280168
952.03	0.0274675
952.164	0.0285052
952.298	0.0267961
952.432	0.0272233
952.566	0.0274065
952.7	0.0278337
952.834	0.0271623
952.968	0.0271013
953.102	0.0274675
953.236	0.0280168
953.37	0.0279558
953.504	0.0282
953.639	0.026674
953.773	0.0276506
953.907	0.0276506
954.041	0.0271623
954.175	0.0271013
954.309	0.0280168
954.443	0.026674
954.577	0.0278948
954.711	0.0271623
954.845	0.0274065
954.979	0.0268571
955.113	0.0270402
955.247	0.0262467
955.381	0.0285052
955.515	0.0275285
955.649	0.026674
955.783	0.0284441
955.917	0.0276506
956.052	0.0272844
956.186	0.0274065
956.32	0.0280779
956.454	0.0268571
956.588	0.0272233
956.722	0.0274675
956.856	0.0278337
956.99	0.0269792
957.124	0.0275285
957.258	0.026735
957.392	0.0274675
957.526	0.0278337
957.66	0.0275896
957.794	0.0278948
957.928	0.0275896
958.062	0.0273454
958.196	0.0269181
958.33	0.0276506
958.464	0.0280168
958.598	0.0275285
958.733	0.0287493
958.867	0.0271623
959.001	0.0275896
959.135	0.0264298
959.269	0.028322
959.403	0.0273454
959.537	0.0276506
959.671	0.0270402
959.805	0.0277117
959.939	0.0275896
960.073	0.0273454
960.207	0.0275896
960.341	0.0275896
960.475	0.0271623
960.609	0.0264909
960.743	0.0278948
960.877	0.0274065
961.011	0.0276506
961.145	0.0269792
961.279	0.0274065
961.413	0.0280779
961.547	0.0278948
961.681	0.0269181
961.815	0.0272233
961.949	0.0278948
962.083	0.0271013
962.218	0.0272233
962.352	0.0272233
962.486	0.0277727
962.62	0.0268571
962.754	0.0274065
962.888	0.0269181
963.022	0.0276506
963.156	0.0274675
963.29	0.0271013
963.424	0.0275896
963.558	0.0271623
963.692	0.0277727
963.826	0.0276506
963.96	0.0280168
964.094	0.0263688
964.228	0.0273454
964.362	0.0273454
964.496	0.0280779
964.63	0.0269181
964.764	0.0272844
964.898	0.0271623
965.032	0.0274675
965.166	0.0272844
965.3	0.0274065
965.434	0.0271013
965.568	0.0281389
965.702	0.0273454
965.836	0.0271623
965.97	0.0270402
966.104	0.0276506
966.238	0.0274065
966.372	0.0270402
966.506	0.0277117
966.64	0.0283831
966.774	0.0272233
966.908	0.0281389
967.043	0.0274065
967.177	0.0277117
967.311	0.0264909
967.445	0.0274675
967.579	0.0272844
967.713	0.0270402
967.847	0.0278337
967.981	0.0286272
968.115	0.0275285
968.249	0.0281389
968.383	0.0268571
968.517	0.026735
968.651	0.0271623
968.785	0.0272844
968.919	0.0269181
969.053	0.0271623
969.187	0.0272844
969.321	0.0277117
969.455	0.0269792
969.589	0.0265519
969.723	0.026674
969.857	0.0276506
969.991	0.0274065
970.125	0.0282
970.259	0.0273454
970.393	0.0283831
970.527	0.0264298
970.661	0.0274675
970.795	0.0281389
970.929	0.0276506
971.063	0.0275285
971.197	0.0278337
971.331	0.026674
971.465	0.0270402
971.599	0.0267961
971.733	0.0277117
971.867	0.0274065
972.001	0.0275896
972.135	0.0272233
972.269	0.0278948
972.403	0.0275896
972.537	0.0272844
972.671	0.0280168
972.805	0.0279558
972.939	0.0274065
973.073	0.0274675
973.207	0.0275896
973.341	0.0278337
973.475	0.0269792
973.609	0.0274675
973.743	0.0283831
973.877	0.0278948
974.011	0.0277727
974.145	0.0278337
974.279	0.0274675
974.413	0.0278948
974.547	0.0277117
974.681	0.0273454
974.815	0.0280168
974.949	0.0274065
975.083	0.0278337
975.217	0.0278948
975.351	0.0278948
975.485	0.0279558
975.619	0.0279558
975.753	0.0275285
975.887	0.0274065
976.021	0.0282
976.155	0.0285662
976.289	0.0275285
976.423	0.0281389
976.557	0.0271013
976.691	0.0268571
976.825	0.0269792
976.959	0.0276506
977.093	0.0282
977.227	0.0278948
977.361	0.0280168
977.495	0.0269792
977.629	0.0269181
977.763	0.028261
977.897	0.0264909
978.031	0.0272844
978.165	0.0280779
978.299	0.0272844
978.433	0.0274065
978.567	0.0265519
978.701	0.028261
978.835	0.0272233
978.969	0.0278948
979.103	0.0270402
979.237	0.0274675
979.371	0.0273454
979.505	0.0279558
979.639	0.0278337
979.773	0.0272233
979.907	0.0275896
980.041	0.0276506
980.175	0.0274065
980.308	0.0273454
980.442	0.0270402
980.576	0.0272844
980.71	0.0272844
980.844	0.0271013
980.978	0.0280779
981.112	0.0272844
981.246	0.0272233
981.38	0.028322
981.514	0.0280779
981.648	0.0278948
981.782	0.0274065
981.916	0.0281389
982.05	0.0275896
982.184	0.026674
982.318	0.0274675
982.452	0.0277117
982.586	0.0274675
982.72	0.0272233
982.854	0.0277727
982.988	0.0275896
983.122	0.0272844
983.256	0.0267961
983.39	0.0272233
983.524	0.0275285
983.658	0.0277117
983.792	0.0275896
983.926	0.0269181
984.06	0.0281389
984.194	0.0275285
984.328	0.0271013
984.462	0.0275285
984.596	0.0272233
984.73	0.0275285
984.864	0.0274675
984.998	0.0275896
985.132	0.0279558
985.265	0.0277727
985.399	0.0280779
985.533	0.0270402
985.667	0.0278337
985.801	0.0270402
985.935	0.028322
986.069	0.0277117
986.203	0.0278948
986.337	0.0271623
986.471	0.026613
986.605	0.0272844
986.739	0.0273454
986.873	0.0274675
987.007	0.0265519
987.141	0.0276506
987.275	0.0274065
987.409	0.0279558
987.543	0.0275896
987.677	0.026674
987.811	0.0269181
987.945	0.0271013
988.079	0.0272844
988.213	0.0278337
988.347	0.0274065
988.481	0.0274675
988.614	0.0271623
988.748	0.0274675
988.882	0.0275285
989.016	0.0280779
989.15	0.0280168
989.284	0.0272233
989.418	0.0275285
989.552	0.0274065
989.686	0.0270402
989.82	0.0277727
989.954	0.0269181
990.088	0.0274675
990.222	0.0274065
990.356	0.026674
990.49	0.0268571
990.624	0.0268571
990.758	0.0276506
990.892	0.0274675
991.026	0.0274065
991.16	0.0270402
991.294	0.0280168
991.427	0.026613
991.561	0.0275896
991.695	0.0274675
991.829	0.0270402
991.963	0.0278337
992.097	0.0274065
992.231	0.0282
992.365	0.0281389
992.499	0.0277117
992.633	0.0273454
992.767	0.0275285
992.901	0.0269792
993.035	0.0274065
993.169	0.0285052
993.303	0.028261
993.437	0.0280168
993.571	0.0278337
993.704	0.0278948
993.838	0.0271623
993.972	0.0285052
994.106	0.0278337
994.24	0.0274675
994.374	0.0277727
994.508	0.0275285
994.642	0.0272233
994.776	0.0280779
994.91	0.0274065
995.044	0.0278948
995.178	0.0274675
995.312	0.0272233
995.446	0.0275285
995.58	0.0272233
995.714	0.0278948
995.847	0.0278337
995.981	0.0277117
996.115	0.0276506
996.249	0.0273454
996.383	0.0273454
996.517	0.0276506
996.651	0.0277727
996.785	0.0274675
996.919	0.0272844
997.053	0.0271013
997.187	0.0272844
997.321	0.0275896
997.455	0.0267961
997.589	0.0277117
997.722	0.0279558
997.856	0.0275285
997.99	0.0280779
998.124	0.0278948
998.258	0.0277727
998.392	0.0273454
998.526	0.0280779
998.66	0.0274675
998.794	0.0280168
998.928	0.028261
999.062	0.026735
999.196	0.026735
999.33	0.026735
999.464	0.0282
999.597	0.0275896
999.731	0.0261857
999.865	0.0274675
999.999	0.0282
1000.13	0.0281389
1000.27	0.0275285
1000.4	0.0273454
1000.53	0.0278948
1000.67	0.0272844
1000.8	0.0279558
1000.94	0.0277727
1001.07	0.0278948
1001.2	0.0274065
1001.34	0.0268571
1001.47	0.0273454
1001.61	0.0275896
1001.74	0.0286883
1001.87	0.0277117
1002.01	0.0271013
1002.14	0.0271013
1002.28	0.0275285
1002.41	0.0275896
1002.54	0.0280168
1002.68	0.026674
1002.81	0.0277117
1002.95	0.0279558
1003.08	0.0269181
1003.21	0.0283831
1003.35	0.0280168
1003.48	0.0272844
1003.61	0.0271013
1003.75	0.026674
1003.88	0.026735
1004.02	0.0279558
1004.15	0.0267961
1004.28	0.028261
1004.42	0.0274675
1004.55	0.0274675
1004.69	0.0271013
1004.82	0.0279558
1004.95	0.0271013
1005.09	0.0271013
1005.22	0.026735
1005.36	0.0274065
1005.49	0.0277117
1005.62	0.0277727
1005.76	0.0276506
1005.89	0.0276506
1006.03	0.0280779
1006.16	0.0278948
1006.29	0.026735
1006.43	0.0271013
1006.56	0.0272233
1006.69	0.0267961
1006.83	0.0280168
1006.96	0.0275896
1007.1	0.0285662
1007.23	0.0275285
1007.36	0.0272844
1007.5	0.0274065
1007.63	0.0272233
1007.77	0.0278948
1007.9	0.028261
1008.03	0.0272233
1008.17	0.0275896
1008.3	0.0282
1008.44	0.026613
1008.57	0.0271623
1008.7	0.0272844
1008.84	0.0277117
1008.97	0.0282
1009.1	0.0283831
1009.24	0.0275285
1009.37	0.026674
1009.51	0.0278948
1009.64	0.0275285
1009.77	0.0271623
1009.91	0.0277117
1010.04	0.0281389
1010.18	0.0268571
1010.31	0.0274675
1010.44	0.0269181
1010.58	0.0272844
1010.71	0.0275285
1010.85	0.0285052
1010.98	0.0274065
1011.11	0.0275285
1011.25	0.0279558
1011.38	0.0277727
1011.51	0.0271623
1011.65	0.0270402
1011.78	0.0275285
1011.92	0.0264298
1012.05	0.0277727
1012.18	0.0280779
1012.32	0.026613
1012.45	0.026735
1012.59	0.0272844
1012.72	0.0270402
1012.85	0.0272233
1012.99	0.0278948
1013.12	0.0273454
1013.26	0.0278948
1013.39	0.0271013
1013.52	0.0276506
1013.66	0.0271623
1013.79	0.0272233
1013.92	0.0274675
1014.06	0.0274065
1014.19	0.0277117
1014.33	0.0280168
1014.46	0.0277727
1014.59	0.0267961
1014.73	0.0284441
1014.86	0.0271013
1015	0.0280779
1015.13	0.0273454
1015.26	0.028261
1015.4	0.0288714
1015.53	0.0278948
1015.67	0.0272844
1015.8	0.0268571
1015.93	0.0274065
1016.07	0.0280779
1016.2	0.0276506
1016.33	0.0282
1016.47	0.0276506
1016.6	0.0275896
1016.74	0.0271013
1016.87	0.0271623
1017	0.0275285
1017.14	0.028322
1017.27	0.0278948
1017.41	0.0280779
1017.54	0.0277117
1017.67	0.0273454
1017.81	0.0275285
1017.94	0.0278948
1018.07	0.0270402
1018.21	0.0278948
1018.34	0.0279558
1018.48	0.0280168
1018.61	0.0271013
1018.74	0.0270402
1018.88	0.0275285
1019.01	0.0275285
1019.15	0.0272844
1019.28	0.0280168
1019.41	0.0278948
1019.55	0.0280168
1019.68	0.0268571
1019.82	0.0272233
1019.95	0.0278337
1020.08	0.0273454
1020.22	0.0280779
1020.35	0.0272844
1020.48	0.0270402
1020.62	0.0272233
1020.75	0.0279558
1020.89	0.0282
1021.02	0.0271013
1021.15	0.0272233
1021.29	0.0277727
1021.42	0.0272233
1021.56	0.026735
1021.69	0.0270402
1021.82	0.0273454
1021.96	0.0280779
1022.09	0.0279558
1022.22	0.0268571
1022.36	0.0274065
1022.49	0.028261
1022.63	0.0274065
1022.76	0.0276506
1022.89	0.0272844
1023.03	0.0276506
1023.16	0.0274675
1023.3	0.0275285
1023.43	0.0271013
1023.56	0.0269792
1023.7	0.0271013
1023.83	0.0280168
1023.96	0.0282
1024.1	0.0276506
1024.23	0.0276506
1024.37	0.0272233
1024.5	0.0275896
1024.63	0.0275896
1024.77	0.0274065
1024.9	0.0275285
1025.04	0.0283831
1025.17	0.0275285
1025.3	0.0274675
1025.44	0.0274675
1025.57	0.028322
1025.7	0.0272233
1025.84	0.0274065
1025.97	0.0278948
1026.11	0.0277727
1026.24	0.0279558
1026.37	0.0270402
1026.51	0.0273454
1026.64	0.0275285
1026.78	0.0268571
1026.91	0.0272233
1027.04	0.0267961
1027.18	0.0271013
1027.31	0.0280168
1027.44	0.0271623
1027.58	0.0271013
1027.71	0.0277117
1027.85	0.0272233
1027.98	0.0273454
1028.11	0.0286883
1028.25	0.0280779
1028.38	0.0282
1028.52	0.0278337
1028.65	0.0280779
1028.78	0.0270402
1028.92	0.0273454
1029.05	0.0272844
1029.18	0.0277727
1029.32	0.0275896
1029.45	0.0278948
1029.59	0.0274675
1029.72	0.0274065
1029.85	0.0279558
1029.99	0.0271623
1030.12	0.0274675
1030.26	0.0275285
1030.39	0.0275285
1030.52	0.0272233
1030.66	0.0277117
1030.79	0.0270402
1030.92	0.0280168
1031.06	0.0269792
1031.19	0.026735
1031.33	0.0261857
1031.46	0.0280168
1031.59	0.0276506
1031.73	0.0275285
1031.86	0.0280168
1031.99	0.0272233
1032.13	0.0281389
1032.26	0.0272844
1032.4	0.0277117
1032.53	0.0271623
1032.66	0.0277117
1032.8	0.0269792
1032.93	0.0280779
1033.07	0.0274065
1033.2	0.0279558
1033.33	0.0280779
1033.47	0.0276506
1033.6	0.0269792
1033.73	0.0278948
1033.87	0.0274065
1034	0.0274675
1034.14	0.0272233
1034.27	0.0277117
1034.4	0.0278337
1034.54	0.0274065
1034.67	0.0274065
1034.81	0.0275285
1034.94	0.0269181
1035.07	0.0278337
1035.21	0.0276506
1035.34	0.0278337
1035.47	0.0277727
1035.61	0.0273454
1035.74	0.0269181
1035.88	0.0269792
1036.01	0.0280168
1036.14	0.0267961
1036.28	0.0274065
1036.41	0.0269181
1036.54	0.0274675
1036.68	0.0275285
1036.81	0.0274065
1036.95	0.0282
1037.08	0.0265519
1037.21	0.0269181
1037.35	0.028322
1037.48	0.0275285
1037.62	0.0280168
1037.75	0.0277727
1037.88	0.0264909
1038.02	0.0276506
1038.15	0.0276506
1038.28	0.0269181
1038.42	0.0268571
1038.55	0.0280779
1038.69	0.0279558
1038.82	0.0272233
1038.95	0.0280779
1039.09	0.0286272
1039.22	0.0274065
1039.35	0.0278948
1039.49	0.0274065
1039.62	0.0274675
1039.76	0.028261
1039.89	0.0274065
1040.02	0.0273454
1040.16	0.0267961
1040.29	0.0275285
1040.43	0.0273454
1040.56	0.0275285
1040.69	0.0274675
1040.83	0.0269181
1040.96	0.0275285
1041.09	0.026735
1041.23	0.0270402
1041.36	0.0276506
1041.5	0.0269181
1041.63	0.0265519
1041.76	0.0283831
1041.9	0.0276506
1042.03	0.0271013
1042.16	0.026674
1042.3	0.0277727
1042.43	0.0272844
1042.57	0.0281389
1042.7	0.0276506
1042.83	0.0265519
1042.97	0.0274675
1043.1	0.0280779
1043.23	0.0279558
1043.37	0.0274065
1043.5	0.0272844
1043.64	0.0271623
1043.77	0.0277727
1043.9	0.0278948
1044.04	0.0275285
1044.17	0.0275285
1044.31	0.0275285
1044.44	0.0277727
1044.57	0.0280168
1044.71	0.0270402
1044.84	0.0267961
1044.97	0.0270402
1045.11	0.0272844
1045.24	0.0278948
1045.38	0.0277117
1045.51	0.0277117
1045.64	0.0280168
1045.78	0.0274675
1045.91	0.0269181
1046.04	0.0274065
1046.18	0.0283831
1046.31	0.0272844
1046.45	0.0268571
1046.58	0.0271013
1046.71	0.0281389
1046.85	0.0276506
1046.98	0.0273454
1047.11	0.0272844
1047.25	0.0279558
1047.38	0.0280779
1047.52	0.0277117
1047.65	0.0274065
1047.78	0.0278948
1047.92	0.0275896
1048.05	0.0284441
1048.18	0.0275896
1048.32	0.0277117
1048.45	0.026674
1048.59	0.0277117
1048.72	0.0274065
1048.85	0.0273454
1048.99	0.0277727
1049.12	0.0273454
1049.25	0.0272233
1049.39	0.0272844
1049.52	0.0277117
1049.66	0.0274065
1049.79	0.0268571
1049.92	0.028261
1050.06	0.0275285
1050.19	0.0280779
1050.33	0.026674
1050.46	0.0274675
1050.59	0.0275896
1050.73	0.0276506
1050.86	0.0275896
1050.99	0.0283831
1051.13	0.026735
1051.26	0.0274675
1051.4	0.0270402
1051.53	0.0275896
1051.66	0.0275285
1051.8	0.0278337
1051.93	0.0281389
1052.06	0.0275896
1052.2	0.0275285
1052.33	0.0279558
1052.47	0.0280779
1052.6	0.0269792
1052.73	0.0279558
1052.87	0.0280779
1053	0.0269181
1053.13	0.0280168
1053.27	0.0278337
1053.4	0.0279558
1053.54	0.0271013
1053.67	0.0272844
1053.8	0.0277727
1053.94	0.0270402
1054.07	0.0274675
1054.2	0.0271623
1054.34	0.0274675
1054.47	0.028322
1054.61	0.0269181
1054.74	0.0277117
1054.87	0.0267961
1055.01	0.0276506
1055.14	0.0277117
1055.27	0.0273454
1055.41	0.0275285
1055.54	0.0272233
1055.68	0.0272844
1055.81	0.026613
1055.94	0.0275896
1056.08	0.0276506
1056.21	0.0273454
1056.34	0.0283831
1056.48	0.0279558
1056.61	0.0273454
1056.75	0.0274065
1056.88	0.0275896
1057.01	0.0278337
1057.15	0.0272233
1057.28	0.0272844
1057.41	0.0272233
1057.55	0.0275896
1057.68	0.0265519
1057.82	0.0277117
1057.95	0.0271623
1058.08	0.0277117
1058.22	0.028261
1058.35	0.0275896
1058.48	0.0260026
1058.62	0.0272233
1058.75	0.0264909
1058.89	0.0277117
1059.02	0.0271623
1059.15	0.0274675
1059.29	0.0277727
1059.42	0.0274675
1059.55	0.0264298
1059.69	0.0272844
1059.82	0.0272233
1059.96	0.0275285
1060.09	0.0273454
1060.22	0.0269792
1060.36	0.0269181
1060.49	0.0269792
1060.62	0.0272844
1060.76	0.0274675
1060.89	0.0273454
1061.03	0.0267961
1061.16	0.0274065
1061.29	0.0277727
1061.43	0.0272844
1061.56	0.0269792
1061.69	0.0269181
1061.83	0.0272844
1061.96	0.0274675
1062.1	0.0275896
1062.23	0.0277117
1062.36	0.0276506
1062.5	0.0274065
1062.63	0.0280168
1062.76	0.0274065
1062.9	0.0280779
1063.03	0.0273454
1063.17	0.0275896
1063.3	0.0271623
1063.43	0.0276506
1063.57	0.0274675
1063.7	0.0269792
1063.83	0.026613
1063.97	0.0269181
1064.1	0.0275285
1064.23	0.0269181
1064.37	0.0277117
1064.5	0.0283831
1064.64	0.0271623
1064.77	0.0269181
1064.9	0.0284441
1065.04	0.0277727
1065.17	0.0271013
1065.3	0.0272233
1065.44	0.0273454
1065.57	0.0274065
1065.71	0.0277117
1065.84	0.026735
1065.97	0.0277727
1066.11	0.0271013
1066.24	0.0273454
1066.37	0.0271623
1066.51	0.0277117
1066.64	0.0284441
1066.78	0.0277727
1066.91	0.0272844
1067.04	0.0268571
1067.18	0.0274675
1067.31	0.0275285
1067.44	0.0274675
1067.58	0.0272233
1067.71	0.0277727
1067.85	0.0274065
1067.98	0.0273454
1068.11	0.0272233
1068.25	0.0279558
1068.38	0.0278337
1068.51	0.0277727
1068.65	0.0276506
1068.78	0.0267961
1068.92	0.0273454
1069.05	0.0275285
1069.18	0.0280779
1069.32	0.0274065
1069.45	0.0277117
1069.58	0.0275896
1069.72	0.0276506
1069.85	0.0277117
1069.98	0.0275285
1070.12	0.0277727
1070.25	0.0274065
1070.39	0.0276506
1070.52	0.0277117
1070.65	0.0274675
1070.79	0.0279558
1070.92	0.0269792
1071.05	0.0271623
1071.19	0.0271623
1071.32	0.0268571
1071.46	0.0272233
1071.59	0.0267961
1071.72	0.0267961
1071.86	0.0267961
1071.99	0.0270402
1072.12	0.0280168
1072.26	0.0276506
1072.39	0.0274675
1072.53	0.0275285
1072.66	0.0278948
1072.79	0.0278948
1072.93	0.0273454
1073.06	0.0278337
1073.19	0.0279558
1073.33	0.0274675
1073.46	0.0271013
1073.59	0.0272844
1073.73	0.0269181
1073.86	0.0274675
1074	0.0265519
1074.13	0.0281389
1074.26	0.0278948
1074.4	0.0274065
1074.53	0.0271623
1074.66	0.0280779
1074.8	0.0280779
1074.93	0.0271623
1075.07	0.0274065
1075.2	0.0269181
1075.33	0.0272844
1075.47	0.026735
1075.6	0.0282
1075.73	0.0271623
1075.87	0.0269792
1076	0.0271013
1076.14	0.0271013
1076.27	0.0279558
1076.4	0.0272844
1076.54	0.0273454
1076.67	0.0274065
1076.8	0.0271623
1076.94	0.0271623
1077.07	0.0268571
1077.2	0.0276506
1077.34	0.0279558
1077.47	0.0275896
1077.61	0.0285662
1077.74	0.0269181
1077.87	0.0275285
1078.01	0.0274675
1078.14	0.0274675
1078.27	0.0272844
1078.41	0.0272233
1078.54	0.0264909
1078.68	0.0275896
1078.81	0.0271013
1078.94	0.0274675
1079.08	0.0277117
1079.21	0.0267961
1079.34	0.0264909
1079.48	0.0274675
1079.61	0.028322
1079.74	0.0275285
1079.88	0.0280779
1080.01	0.0272844
1080.15	0.0278337
1080.28	0.0274065
1080.41	0.0273454
1080.55	0.0272233
1080.68	0.0269181
1080.81	0.026735
1080.95	0.0272233
1081.08	0.0270402
1081.22	0.0277117
1081.35	0.0275896
1081.48	0.0267961
1081.62	0.0275896
1081.75	0.0265519
1081.88	0.0277727
1082.02	0.0274675
1082.15	0.0264909
1082.28	0.0281389
1082.42	0.0275285
1082.55	0.0274065
1082.69	0.0280779
1082.82	0.0275285
1082.95	0.0270402
1083.09	0.0281389
1083.22	0.0275285
1083.35	0.0274065
1083.49	0.0269792
1083.62	0.0273454
1083.75	0.0273454
1083.89	0.0278948
1084.02	0.0275285
1084.16	0.0277727
1084.29	0.0274065
1084.42	0.0285662
1084.56	0.0279558
1084.69	0.0280168
1084.82	0.0277117
1084.96	0.0267961
1085.09	0.0274675
1085.23	0.026613
1085.36	0.0274065
1085.49	0.0276506
1085.63	0.0264909
1085.76	0.0270402
1085.89	0.026613
1086.03	0.0275896
1086.16	0.0275285
1086.29	0.0275285
1086.43	0.0274675
1086.56	0.0282
1086.7	0.0277727
1086.83	0.0277727
1086.96	0.0269181
1087.1	0.0274065
1087.23	0.0280168
1087.36	0.0271013
1087.5	0.0276506
1087.63	0.0264298
1087.76	0.0274065
1087.9	0.0274675
1088.03	0.0279558
1088.17	0.0279558
1088.3	0.0284441
1088.43	0.0274675
1088.57	0.0267961
1088.7	0.0280168
1088.83	0.0273454
1088.97	0.0271623
1089.1	0.028322
1089.24	0.0285662
1089.37	0.0274065
1089.5	0.0282
1089.64	0.0287493
1089.77	0.0271013
1089.9	0.0270402
1090.04	0.0275896
1090.17	0.0264909
1090.3	0.0277117
1090.44	0.0280168
1090.57	0.0280168
1090.71	0.0275285
1090.84	0.0280779
1090.97	0.028261
1091.11	0.0272233
1091.24	0.0271623
1091.37	0.0274675
1091.51	0.0276506
1091.64	0.0278337
1091.77	0.0271623
1091.91	0.0264909
1092.04	0.0277117
1092.18	0.0274675
1092.31	0.0273454
1092.44	0.0271623
1092.58	0.0276506
1092.71	0.0270402
1092.84	0.0271623
1092.98	0.0272233
1093.11	0.0283831
1093.24	0.0270402
1093.38	0.0265519
1093.51	0.0277117
1093.65	0.0269792
1093.78	0.0272233
1093.91	0.0270402
1094.05	0.0279558
1094.18	0.0275285
1094.31	0.0271013
1094.45	0.0278337
1094.58	0.0274065
1094.71	0.0270402
1094.85	0.0268571
1094.98	0.0276506
1095.12	0.026674
1095.25	0.0273454
1095.38	0.0270402
1095.52	0.0272233
1095.65	0.0270402
1095.78	0.0275285
1095.92	0.0280168
1096.05	0.0276506
1096.18	0.0275285
1096.32	0.0272844
1096.45	0.026735
1096.59	0.0265519
1096.72	0.0269181
1096.85	0.0281389
1096.99	0.0278337
1097.12	0.0272233
1097.25	0.0278337
1097.39	0.0269792
1097.52	0.0283831
1097.65	0.0277117
1097.79	0.0274065
1097.92	0.0272233
1098.06	0.0273454
1098.19	0.0272233
1098.32	0.0273454
1098.46	0.0272844
1098.59	0.0272844
1098.72	0.0277727
1098.86	0.0272844
1098.99	0.0275285
1099.12	0.0262467
1099.26	0.0276506
1099.39	0.0279558
1099.53	0.0262467
1099.66	0.0271013
1099.79	0.0262467
1099.93	0.0264909
1100.06	0.0272844
1100.19	0.0277727
1100.33	0.0269181
1100.46	0.0278337
1100.59	0.0272233
1100.73	0.0277727
1100.86	0.0275896
1100.99	0.0285052
1101.13	0.0274065
1101.26	0.0288104
1101.4	0.026674
1101.53	0.0272233
1101.66	0.0274065
1101.8	0.0272844
1101.93	0.0268571
1102.06	0.0271623
1102.2	0.0274675
1102.33	0.0275285
1102.46	0.0275285
1102.6	0.0274675
1102.73	0.0274675
1102.87	0.0275896
1103	0.0280168
1103.13	0.0281389
1103.27	0.0286883
1103.4	0.0271013
1103.53	0.0275285
1103.67	0.0278337
1103.8	0.0275285
1103.93	0.0271013
1104.07	0.0275896
1104.2	0.0272233
1104.34	0.0280168
1104.47	0.0277727
1104.6	0.0272844
1104.74	0.0277117
1104.87	0.0271013
1105	0.0275285
1105.14	0.0268571
1105.27	0.0275896
1105.4	0.0274675
1105.54	0.0274065
1105.67	0.0274675
1105.8	0.0274065
1105.94	0.0283831
1106.07	0.0275285
1106.21	0.0272233
1106.34	0.0278337
1106.47	0.0276506
1106.61	0.0280168
1106.74	0.0271623
1106.87	0.0283831
1107.01	0.0271623
1107.14	0.0288104
1107.27	0.0277727
1107.41	0.0274065
1107.54	0.0271013

