Source: Spectrum Viewer

Chart: Pulse Spectrum

Series: 
Wavelength (nm)	S (a.u.)
617.638	0.0273454
617.773	0.0273454
617.908	0.0279558
618.043	0.0277727
618.178	0.0271623
618.313	0.0274675
618.448	0.0275896
618.583	0.0272233
618.718	0.0275896
618.853	0.0269181
618.988	0.0279558
619.123	0.0279558
619.258	0.0279558
619.394	0.0279558
619.529	0.0270402
619.664	0.0273454
619.799	0.0276506
619.934	0.0269792
620.069	0.0274675
620.204	0.0268571
620.339	0.0272844
620.474	0.0268571
620.609	0.0280779
620.744	0.0275285
620.879	0.0278337
621.014	0.0269792
621.149	0.0269181
621.284	0.0277117
621.419	0.0272844
621.554	0.0281389
621.689	0.0273454
621.825	0.026613
621.96	0.0274065
622.095	0.0277727
622.23	0.0268571
622.365	0.0277727
622.5	0.0273454
622.635	0.0275285
622.77	0.0277117
622.905	0.0277727
623.04	0.0272844
623.175	0.0273454
623.31	0.0267961
623.445	0.0271623
623.58	0.0269181
623.715	0.0281389
623.85	0.0272844
623.985	0.0273454
624.12	0.0285052
624.255	0.0272844
624.39	0.0271623
624.525	0.0275896
624.661	0.0273454
624.796	0.0272233
624.931	0.0284441
625.066	0.0278948
625.201	0.026735
625.336	0.0276506
625.471	0.0269792
625.606	0.0268571
625.741	0.0277727
625.876	0.0278337
626.011	0.0277117
626.146	0.026613
626.281	0.0282
626.416	0.0276506
626.551	0.0272233
626.686	0.0269181
626.821	0.0285662
626.956	0.0275896
627.091	0.0272233
627.226	0.0279558
627.361	0.0272844
627.496	0.0277727
627.631	0.0269792
627.766	0.0277117
627.901	0.0278337
628.036	0.0277117
628.171	0.0284441
628.307	0.0278337
628.442	0.0279558
628.577	0.0278948
628.712	0.0274065
628.847	0.0269181
628.982	0.028261
629.117	0.0280168
629.252	0.0273454
629.387	0.0275285
629.522	0.0270402
629.657	0.028322
629.792	0.0275896
629.927	0.0274675
630.062	0.0277727
630.197	0.0274675
630.332	0.0278337
630.467	0.0274675
630.602	0.0279558
630.737	0.0275285
630.872	0.0271623
631.007	0.0279558
631.142	0.0280168
631.277	0.0275285
631.412	0.0271013
631.547	0.0270402
631.682	0.0267961
631.817	0.0271013
631.952	0.0269181
632.087	0.0275285
632.222	0.0275285
632.357	0.0278337
632.492	0.0279558
632.627	0.0272233
632.762	0.0278948
632.897	0.0283831
633.032	0.0275896
633.167	0.0275285
633.302	0.0277117
633.437	0.0276506
633.572	0.0276506
633.707	0.0272844
633.842	0.0271623
633.978	0.0275285
634.113	0.0272844
634.248	0.0272844
634.383	0.0276506
634.518	0.0273454
634.653	0.0269792
634.788	0.0275285
634.923	0.0277117
635.058	0.0274675
635.193	0.0276506
635.328	0.0274675
635.463	0.0274675
635.598	0.0275896
635.733	0.0278337
635.868	0.0281389
636.003	0.0269792
636.138	0.0269181
636.273	0.0275285
636.408	0.0275285
636.543	0.0274065
636.678	0.0274065
636.813	0.0285052
636.948	0.0269792
637.083	0.026735
637.218	0.026674
637.353	0.0274675
637.488	0.0274675
637.623	0.028322
637.758	0.0277727
637.893	0.0281389
638.028	0.026613
638.163	0.0277117
638.298	0.026674
638.433	0.0272844
638.568	0.0278337
638.703	0.026613
638.838	0.0271013
638.973	0.0280168
639.108	0.0272233
639.243	0.0277727
639.378	0.0276506
639.513	0.0277727
639.648	0.0278337
639.783	0.0271623
639.918	0.0269792
640.053	0.0279558
640.188	0.0277727
640.323	0.0276506
640.458	0.0277117
640.593	0.0277117
640.728	0.0286272
640.863	0.0272844
640.998	0.0276506
641.133	0.0271013
641.268	0.0269181
641.403	0.028322
641.538	0.0270402
641.673	0.0274675
641.808	0.0278948
641.943	0.0278948
642.078	0.0278337
642.213	0.0282
642.348	0.0278948
642.483	0.0275285
642.618	0.0274675
642.753	0.0279558
642.888	0.0280779
643.023	0.0273454
643.158	0.0269181
643.293	0.0272233
643.428	0.0275285
643.563	0.0278337
643.698	0.0275285
643.833	0.0282
643.968	0.0276506
644.103	0.0277117
644.237	0.0274065
644.372	0.0275285
644.507	0.0278948
644.642	0.0275285
644.777	0.0276506
644.912	0.0275285
645.047	0.0269792
645.182	0.026735
645.317	0.0270402
645.452	0.0274065
645.587	0.0271013
645.722	0.0274065
645.857	0.0277117
645.992	0.0271013
646.127	0.0277727
646.262	0.0265519
646.397	0.0269181
646.532	0.0274065
646.667	0.0271623
646.802	0.0268571
646.937	0.0273454
647.072	0.0276506
647.207	0.0278948
647.342	0.0275285
647.477	0.0271623
647.612	0.0272233
647.747	0.0279558
647.882	0.0275285
648.017	0.0267961
648.152	0.0271623
648.287	0.0272844
648.422	0.0273454
648.557	0.026674
648.692	0.0276506
648.827	0.0272844
648.962	0.0278337
649.097	0.0274065
649.232	0.0274065
649.367	0.0274065
649.502	0.0277727
649.637	0.0272233
649.772	0.0267961
649.906	0.0284441
650.041	0.0269181
650.176	0.0270402
650.311	0.0273454
650.446	0.0273454
650.581	0.0280168
650.716	0.0278337
650.851	0.0276506
650.986	0.0274065
651.121	0.0270402
651.256	0.0273454
651.391	0.0269792
651.526	0.0274065
651.661	0.0269792
651.796	0.0271623
651.931	0.0272233
652.066	0.0274675
652.201	0.0279558
652.336	0.0274675
652.471	0.0280779
652.606	0.028261
652.741	0.0282
652.876	0.028261
653.011	0.0280168
653.146	0.0272233
653.281	0.0280168
653.415	0.0280168
653.55	0.028322
653.685	0.0274675
653.82	0.0270402
653.955	0.026674
654.09	0.026735
654.225	0.0269181
654.36	0.0278337
654.495	0.0272233
654.63	0.0276506
654.765	0.0277727
654.9	0.028261
655.035	0.028322
655.17	0.0274065
655.305	0.0275896
655.44	0.0271013
655.575	0.0275896
655.71	0.0271013
655.845	0.0271013
655.98	0.0278948
656.115	0.0263688
656.25	0.0274675
656.384	0.0278337
656.519	0.0273454
656.654	0.0272844
656.789	0.0277727
656.924	0.0274065
657.059	0.0272844
657.194	0.0280168
657.329	0.0277117
657.464	0.0259415
657.599	0.0273454
657.734	0.0272844
657.869	0.0271623
658.004	0.0268571
658.139	0.0276506
658.274	0.0269792
658.409	0.0274675
658.544	0.0275285
658.679	0.0274065
658.813	0.0275285
658.948	0.0274675
659.083	0.0275896
659.218	0.0271013
659.353	0.0280168
659.488	0.0272844
659.623	0.0280168
659.758	0.0277727
659.893	0.0279558
660.028	0.0277117
660.163	0.0274675
660.298	0.0273454
660.433	0.0279558
660.568	0.0277117
660.703	0.0276506
660.838	0.0272844
660.972	0.028261
661.107	0.0277727
661.242	0.0277117
661.377	0.0277117
661.512	0.0271013
661.647	0.0279558
661.782	0.0271013
661.917	0.0275896
662.052	0.0274065
662.187	0.0278337
662.322	0.0281389
662.457	0.0268571
662.592	0.0268571
662.727	0.0272233
662.862	0.0274065
662.996	0.0278948
663.131	0.0279558
663.266	0.026613
663.401	0.0278337
663.536	0.0273454
663.671	0.0280779
663.806	0.0277727
663.941	0.0278337
664.076	0.0274675
664.211	0.0275896
664.346	0.0271623
664.481	0.0272233
664.616	0.028322
664.75	0.0276506
664.885	0.0275896
665.02	0.0277727
665.155	0.0279558
665.29	0.0274675
665.425	0.0271623
665.56	0.0272844
665.695	0.0270402
665.83	0.0272233
665.965	0.0282
666.1	0.026674
666.235	0.0275285
666.37	0.0272233
666.504	0.0280779
666.639	0.0270402
666.774	0.0272844
666.909	0.0278337
667.044	0.0269792
667.179	0.0273454
667.314	0.0274675
667.449	0.0271623
667.584	0.0277117
667.719	0.0274675
667.854	0.0278337
667.989	0.0273454
668.123	0.0275285
668.258	0.0280168
668.393	0.0267961
668.528	0.0271013
668.663	0.0278337
668.798	0.028261
668.933	0.0273454
669.068	0.0272844
669.203	0.0274065
669.338	0.0277117
669.473	0.0277117
669.607	0.0273454
669.742	0.0285052
669.877	0.0272844
670.012	0.0286272
670.147	0.0269792
670.282	0.0276506
670.417	0.0271623
670.552	0.0282
670.687	0.0269792
670.822	0.0269792
670.957	0.0272844
671.091	0.0278948
671.226	0.0284441
671.361	0.0277727
671.496	0.0285052
671.631	0.0274065
671.766	0.0272844
671.901	0.0277727
672.036	0.0279558
672.171	0.026674
672.306	0.0273454
672.44	0.0284441
672.575	0.028322
672.71	0.0272233
672.845	0.0279558
672.98	0.0277727
673.115	0.0272233
673.25	0.0268571
673.385	0.0272233
673.52	0.0271623
673.655	0.0271013
673.789	0.0281389
673.924	0.0258805
674.059	0.0275285
674.194	0.0267961
674.329	0.0278337
674.464	0.0274675
674.599	0.0275285
674.734	0.0277727
674.869	0.0275285
675.003	0.0279558
675.138	0.0269792
675.273	0.0272844
675.408	0.0273454
675.543	0.0282
675.678	0.0277117
675.813	0.0270402
675.948	0.0275896
676.083	0.0278337
676.217	0.0277727
676.352	0.0276506
676.487	0.0278337
676.622	0.0273454
676.757	0.0272233
676.892	0.0280779
677.027	0.0277117
677.162	0.0277117
677.297	0.0276506
677.431	0.0272844
677.566	0.0270402
677.701	0.0275285
677.836	0.0277727
677.971	0.0283831
678.106	0.0277727
678.241	0.0274065
678.376	0.0271623
678.511	0.0278948
678.645	0.0271623
678.78	0.0279558
678.915	0.0277727
679.05	0.0280168
679.185	0.0275896
679.32	0.0274065
679.455	0.0275285
679.59	0.026735
679.724	0.0277117
679.859	0.0287493
679.994	0.0275896
680.129	0.0271623
680.264	0.0282
680.399	0.0281389
680.534	0.0277117
680.669	0.0272844
680.803	0.0272844
680.938	0.0268571
681.073	0.0271623
681.208	0.0272844
681.343	0.0280779
681.478	0.0277117
681.613	0.0277727
681.748	0.0268571
681.882	0.028261
682.017	0.0274065
682.152	0.0268571
682.287	0.0276506
682.422	0.0273454
682.557	0.0282
682.692	0.0277727
682.827	0.0272844
682.961	0.0286272
683.096	0.0274065
683.231	0.0272844
683.366	0.0277117
683.501	0.0277117
683.636	0.0271013
683.771	0.0275896
683.906	0.0281389
684.04	0.0277117
684.175	0.0280168
684.31	0.0277117
684.445	0.0274675
684.58	0.0276506
684.715	0.0273454
684.85	0.0277117
684.984	0.0272233
685.119	0.0278948
685.254	0.0273454
685.389	0.0273454
685.524	0.0271623
685.659	0.0275896
685.794	0.0270402
685.928	0.0273454
686.063	0.0270402
686.198	0.0280779
686.333	0.0278948
686.468	0.0276506
686.603	0.0277727
686.738	0.028322
686.872	0.0275285
687.007	0.0271623
687.142	0.0272233
687.277	0.0274675
687.412	0.0283831
687.547	0.0277727
687.682	0.0282
687.816	0.0280779
687.951	0.0272233
688.086	0.0276506
688.221	0.0271013
688.356	0.0276506
688.491	0.0273454
688.626	0.0271013
688.76	0.0272233
688.895	0.0274675
689.03	0.0285052
689.165	0.0271623
689.3	0.0278948
689.435	0.0272233
689.57	0.0268571
689.704	0.0275285
689.839	0.0280168
689.974	0.0272844
690.109	0.0271013
690.244	0.0280168
690.379	0.0272233
690.513	0.0275896
690.648	0.0274675
690.783	0.0285662
690.918	0.0263078
691.053	0.0280168
691.188	0.0278337
691.323	0.0273454
691.457	0.0274675
691.592	0.026613
691.727	0.0271623
691.862	0.0278948
691.997	0.0280779
692.132	0.0272844
692.266	0.0274675
692.401	0.0271013
692.536	0.0273454
692.671	0.0275285
692.806	0.0270402
692.941	0.0277117
693.075	0.0271013
693.21	0.0278948
693.345	0.0274675
693.48	0.0275896
693.615	0.0277727
693.75	0.0275285
693.885	0.0267961
694.019	0.0278337
694.154	0.0270402
694.289	0.0273454
694.424	0.0275285
694.559	0.0282
694.694	0.0272844
694.828	0.0278948
694.963	0.0275896
695.098	0.0272233
695.233	0.0280779
695.368	0.0279558
695.503	0.0275896
695.637	0.0271623
695.772	0.0269792
695.907	0.0280168
696.042	0.0262467
696.177	0.0281389
696.312	0.0271623
696.446	0.0278948
696.581	0.0267961
696.716	0.0275285
696.851	0.0278948
696.986	0.0278337
697.12	0.0283831
697.255	0.0275896
697.39	0.0271623
697.525	0.026613
697.66	0.0279558
697.795	0.0276506
697.929	0.0271623
698.064	0.0282
698.199	0.0269181
698.334	0.0275896
698.469	0.0277117
698.604	0.0270402
698.738	0.0273454
698.873	0.0278948
699.008	0.0285052
699.143	0.0274675
699.278	0.0280779
699.412	0.0277727
699.547	0.0272233
699.682	0.0271623
699.817	0.0278948
699.952	0.0280779
700.087	0.0272233
700.221	0.026735
700.356	0.0277727
700.491	0.0271013
700.626	0.0278337
700.761	0.0272844
700.895	0.0271623
701.03	0.0290545
701.165	0.0270402
701.3	0.0268571
701.435	0.0274065
701.57	0.0276506
701.704	0.0272233
701.839	0.0272233
701.974	0.0274675
702.109	0.026735
702.244	0.0271623
702.378	0.0275285
702.513	0.0272844
702.648	0.0275896
702.783	0.0282
702.918	0.0276506
703.052	0.0270402
703.187	0.0275896
703.322	0.0271623
703.457	0.0271623
703.592	0.0277117
703.727	0.0280168
703.861	0.0277727
703.996	0.0274675
704.131	0.0278948
704.266	0.0275896
704.401	0.0274675
704.535	0.0276506
704.67	0.0280168
704.805	0.0275285
704.94	0.0270402
705.075	0.0275896
705.209	0.0264909
705.344	0.0277117
705.479	0.028261
705.614	0.0287493
705.749	0.0275285
705.883	0.0278948
706.018	0.0275896
706.153	0.0275285
706.288	0.0274065
706.423	0.0276506
706.557	0.0273454
706.692	0.0273454
706.827	0.0282
706.962	0.0272233
707.097	0.0278948
707.231	0.0275896
707.366	0.0286272
707.501	0.0267961
707.636	0.0271623
707.771	0.0276506
707.905	0.0277117
708.04	0.0280168
708.175	0.0272233
708.31	0.026613
708.445	0.0283831
708.579	0.0277727
708.714	0.0279558
708.849	0.0280779
708.984	0.0274675
709.118	0.026613
709.253	0.0269181
709.388	0.026735
709.523	0.0283831
709.658	0.0281389
709.792	0.0275896
709.927	0.0274065
710.062	0.0274675
710.197	0.028261
710.332	0.0273454
710.466	0.0277117
710.601	0.0272844
710.736	0.0269792
710.871	0.0274065
711.006	0.028261
711.14	0.0271013
711.275	0.0286883
711.41	0.0274065
711.545	0.0271013
711.679	0.026735
711.814	0.0273454
711.949	0.0268571
712.084	0.0275285
712.219	0.0284441
712.353	0.0274675
712.488	0.0279558
712.623	0.0272233
712.758	0.0275285
712.892	0.0274065
713.027	0.0277727
713.162	0.0276506
713.297	0.0272844
713.432	0.0275896
713.566	0.0272844
713.701	0.0272844
713.836	0.0269792
713.971	0.0269792
714.105	0.0273454
714.24	0.0272233
714.375	0.0275896
714.51	0.0277727
714.645	0.0272233
714.779	0.0275896
714.914	0.0272233
715.049	0.0274675
715.184	0.0270402
715.318	0.0272844
715.453	0.0274675
715.588	0.0275285
715.723	0.0277727
715.858	0.0273454
715.992	0.0273454
716.127	0.0274065
716.262	0.0277117
716.397	0.0274065
716.531	0.0276506
716.666	0.0272844
716.801	0.0272844
716.936	0.0279558
717.07	0.0278948
717.205	0.0271623
717.34	0.0277117
717.475	0.0274675
717.61	0.0277117
717.744	0.0265519
717.879	0.026735
718.014	0.0271623
718.149	0.0272233
718.283	0.0271013
718.418	0.0280779
718.553	0.0275896
718.688	0.0261857
718.822	0.0268571
718.957	0.0275285
719.092	0.0286883
719.227	0.0264909
719.361	0.0273454
719.496	0.0280168
719.631	0.0278948
719.766	0.0277727
719.9	0.0268571
720.035	0.0273454
720.17	0.0275285
720.305	0.0277117
720.44	0.0278337
720.574	0.0271623
720.709	0.0274065
720.844	0.0282
720.979	0.0278337
721.113	0.0278948
721.248	0.0271013
721.383	0.0275285
721.518	0.028261
721.652	0.0272233
721.787	0.0272844
721.922	0.0280779
722.057	0.0278337
722.191	0.0277117
722.326	0.0282
722.461	0.0277117
722.596	0.0274675
722.73	0.0274675
722.865	0.0269792
723	0.0277117
723.135	0.0270402
723.269	0.0265519
723.404	0.0294207
723.539	0.0280779
723.674	0.0278337
723.808	0.028261
723.943	0.0276506
724.078	0.0274675
724.213	0.0286272
724.347	0.0277727
724.482	0.0281389
724.617	0.0275285
724.752	0.0273454
724.886	0.0270402
725.021	0.0275285
725.156	0.0277727
725.291	0.0272844
725.425	0.0268571
725.56	0.0275285
725.695	0.0268571
725.829	0.0275285
725.964	0.0280168
726.099	0.0269181
726.234	0.0282
726.368	0.0279558
726.503	0.0272844
726.638	0.0272844
726.773	0.0273454
726.907	0.0267961
727.042	0.0277727
727.177	0.026613
727.312	0.0274675
727.446	0.0282
727.581	0.0274065
727.716	0.0270402
727.851	0.0264298
727.985	0.0274065
728.12	0.0274065
728.255	0.0287493
728.389	0.0269181
728.524	0.0278948
728.659	0.026674
728.794	0.0272233
728.928	0.0274065
729.063	0.0282
729.198	0.0269181
729.333	0.0278337
729.467	0.0269792
729.602	0.0272844
729.737	0.0274675
729.872	0.0280779
730.006	0.0274675
730.141	0.0271623
730.276	0.0275285
730.41	0.0271623
730.545	0.0272844
730.68	0.0283831
730.815	0.0271013
730.949	0.0270402
731.084	0.0276506
731.219	0.0276506
731.354	0.0283831
731.488	0.0271013
731.623	0.0263078
731.758	0.0277117
731.892	0.0279558
732.027	0.0281389
732.162	0.0273454
732.297	0.0274675
732.431	0.0269792
732.566	0.0287493
732.701	0.0272233
732.835	0.0271013
732.97	0.0279558
733.105	0.0277117
733.24	0.0271013
733.374	0.0280168
733.509	0.026613
733.644	0.0277727
733.779	0.0269792
733.913	0.0281389
734.048	0.0279558
734.183	0.0277117
734.317	0.0280168
734.452	0.0278337
734.587	0.0263688
734.722	0.0281389
734.856	0.0273454
734.991	0.0272233
735.126	0.0275285
735.26	0.0270402
735.395	0.0278337
735.53	0.0280168
735.665	0.0267961
735.799	0.0275896
735.934	0.0278948
736.069	0.0268571
736.203	0.0275896
736.338	0.0277727
736.473	0.0278948
736.607	0.026613
736.742	0.0278948
736.877	0.0281389
737.012	0.0280168
737.146	0.0278337
737.281	0.0274065
737.416	0.0274675
737.55	0.0280779
737.685	0.0272844
737.82	0.0270402
737.955	0.0277117
738.089	0.0276506
738.224	0.0277727
738.359	0.0275896
738.493	0.0277727
738.628	0.0276506
738.763	0.0282
738.897	0.0271623
739.032	0.0274065
739.167	0.0273454
739.302	0.0275896
739.436	0.0279558
739.571	0.0274065
739.706	0.026674
739.84	0.0275285
739.975	0.0274675
740.11	0.0268571
740.244	0.0277117
740.379	0.0268571
740.514	0.0269792
740.649	0.0276506
740.783	0.0271623
740.918	0.0265519
741.053	0.0272233
741.187	0.0283831
741.322	0.0273454
741.457	0.0283831
741.591	0.0278337
741.726	0.0279558
741.861	0.026674
741.996	0.0275285
742.13	0.0268571
742.265	0.0272844
742.4	0.0279558
742.534	0.0275285
742.669	0.0269792
742.804	0.0277117
742.938	0.0274065
743.073	0.0269792
743.208	0.0271623
743.342	0.028322
743.477	0.0282
743.612	0.0274065
743.747	0.0274675
743.881	0.0275285
744.016	0.0277117
744.151	0.0273454
744.285	0.0272844
744.42	0.0269181
744.555	0.0274675
744.689	0.028261
744.824	0.0274675
744.959	0.0275285
745.093	0.0274065
745.228	0.0272233
745.363	0.0271623
745.497	0.0271623
745.632	0.0277117
745.767	0.0274675
745.901	0.0275896
746.036	0.0273454
746.171	0.0275285
746.305	0.0277727
746.44	0.0282
746.575	0.0277727
746.71	0.0274675
746.844	0.0282
746.979	0.0273454
747.114	0.028261
747.248	0.0272233
747.383	0.028261
747.518	0.0260636
747.652	0.0274675
747.787	0.0275285
747.922	0.0278337
748.056	0.0271013
748.191	0.0268571
748.326	0.0271623
748.46	0.0274675
748.595	0.0272844
748.73	0.0277117
748.864	0.0268571
748.999	0.0277117
749.134	0.0278337
749.268	0.026674
749.403	0.0281389
749.538	0.0277117
749.672	0.0274065
749.807	0.0273454
749.942	0.0275896
750.076	0.0272233
750.211	0.0275285
750.346	0.0277727
750.48	0.0267961
750.615	0.0275896
750.75	0.0273454
750.884	0.0273454
751.019	0.0276506
751.154	0.0280168
751.288	0.0273454
751.423	0.0279558
751.558	0.0267961
751.692	0.0281389
751.827	0.0269792
751.962	0.0269181
752.096	0.0280168
752.231	0.0285662
752.366	0.0276506
752.5	0.0280168
752.635	0.0278948
752.77	0.0277117
752.904	0.0268571
753.039	0.0279558
753.174	0.0269181
753.308	0.0282
753.443	0.0274065
753.578	0.0273454
753.712	0.0277727
753.847	0.0278337
753.982	0.0272844
754.116	0.0284441
754.251	0.0280779
754.386	0.0280168
754.52	0.0271623
754.655	0.0273454
754.79	0.0273454
754.924	0.0275285
755.059	0.0273454
755.194	0.026735
755.328	0.0275896
755.463	0.0269181
755.597	0.0283831
755.732	0.0276506
755.867	0.0275896
756.001	0.0274065
756.136	0.0275896
756.271	0.0277117
756.405	0.0274675
756.54	0.0272844
756.675	0.0267961
756.809	0.0280168
756.944	0.026674
757.079	0.0279558
757.213	0.0272233
757.348	0.0276506
757.483	0.0277727
757.617	0.0280779
757.752	0.0274065
757.887	0.0274065
758.021	0.0269792
758.156	0.0269792
758.29	0.026735
758.425	0.0280779
758.56	0.0274675
758.694	0.0278948
758.829	0.0270402
758.964	0.0272844
759.098	0.0282
759.233	0.0269181
759.368	0.0281389
759.502	0.0278337
759.637	0.0268571
759.772	0.0278337
759.906	0.0272844
760.041	0.0267961
760.175	0.0271013
760.31	0.0276506
760.445	0.0269181
760.579	0.028322
760.714	0.0272233
760.849	0.0274065
760.983	0.0275285
761.118	0.028261
761.253	0.0278337
761.387	0.0277727
761.522	0.0271013
761.656	0.0273454
761.791	0.0275896
761.926	0.0277727
762.06	0.0283831
762.195	0.0277117
762.33	0.0269792
762.464	0.0275285
762.599	0.0278337
762.733	0.0278337
762.868	0.0280168
763.003	0.0275285
763.137	0.0276506
763.272	0.0272844
763.407	0.0275285
763.541	0.0272844
763.676	0.0277117
763.811	0.0278337
763.945	0.0264909
764.08	0.0271623
764.214	0.0282
764.349	0.0279558
764.484	0.0271623
764.618	0.028261
764.753	0.0278948
764.888	0.0271623
765.022	0.0274675
765.157	0.0278337
765.291	0.0270402
765.426	0.0272233
765.561	0.0269181
765.695	0.0270402
765.83	0.0270402
765.965	0.0276506
766.099	0.0276506
766.234	0.0280168
766.368	0.0278337
766.503	0.0276506
766.638	0.0275896
766.772	0.0285052
766.907	0.0272844
767.041	0.0274065
767.176	0.0277117
767.311	0.0277727
767.445	0.0268571
767.58	0.0277117
767.715	0.0274065
767.849	0.0284441
767.984	0.0275285
768.118	0.0269181
768.253	0.0278948
768.388	0.0273454
768.522	0.0277727
768.657	0.0278337
768.791	0.0279558
768.926	0.0268571
769.061	0.0286272
769.195	0.0271623
769.33	0.0282
769.465	0.0274675
769.599	0.0274065
769.734	0.0272233
769.868	0.0285052
770.003	0.0271623
770.138	0.0279558
770.272	0.028261
770.407	0.0277727
770.541	0.0282
770.676	0.026674
770.811	0.0277727
770.945	0.0280779
771.08	0.0276506
771.214	0.0274065
771.349	0.0272233
771.484	0.0288714
771.618	0.0279558
771.753	0.0280779
771.887	0.028261
772.022	0.0280168
772.157	0.0278337
772.291	0.0279558
772.426	0.0278948
772.56	0.0272844
772.695	0.0274065
772.83	0.0274675
772.964	0.0273454
773.099	0.0272233
773.233	0.0278337
773.368	0.0269792
773.503	0.0275896
773.637	0.0278948
773.772	0.0274675
773.906	0.0273454
774.041	0.0275285
774.176	0.0269792
774.31	0.0280168
774.445	0.0275285
774.579	0.0272233
774.714	0.0277117
774.849	0.0274065
774.983	0.0276506
775.118	0.0274065
775.252	0.0280779
775.387	0.0277117
775.522	0.0265519
775.656	0.0270402
775.791	0.0274675
775.925	0.0270402
776.06	0.0263688
776.195	0.0277727
776.329	0.0272233
776.464	0.0278337
776.598	0.0274065
776.733	0.0271623
776.868	0.0277117
777.002	0.0281389
777.137	0.0280779
777.271	0.0274065
777.406	0.0267961
777.54	0.0278337
777.675	0.0274065
777.81	0.0269792
777.944	0.0272844
778.079	0.0281389
778.213	0.0263078
778.348	0.0278337
778.483	0.0276506
778.617	0.0277117
778.752	0.0276506
778.886	0.0277727
779.021	0.0277117
779.155	0.0275896
779.29	0.0269792
779.425	0.0279558
779.559	0.0270402
779.694	0.0282
779.828	0.026735
779.963	0.0277117
780.098	0.0282
780.232	0.026735
780.367	0.0275896
780.501	0.0265519
780.636	0.0272233
780.77	0.028261
780.905	0.0272233
781.04	0.0269181
781.174	0.0273454
781.309	0.0286272
781.443	0.0275896
781.578	0.0273454
781.712	0.0279558
781.847	0.0282
781.982	0.0278948
782.116	0.0273454
782.251	0.0275896
782.385	0.0270402
782.52	0.0275285
782.654	0.0283831
782.789	0.0279558
782.924	0.0277117
783.058	0.0280168
783.193	0.0279558
783.327	0.0271623
783.462	0.0269792
783.596	0.0270402
783.731	0.0276506
783.866	0.0275285
784	0.0280168
784.135	0.0275285
784.269	0.0271623
784.404	0.0278948
784.538	0.0276506
784.673	0.0269792
784.808	0.0271623
784.942	0.0279558
785.077	0.0278948
785.211	0.0276506
785.346	0.0271013
785.48	0.0270402
785.615	0.0278337
785.75	0.0288104
785.884	0.0280779
786.019	0.0273454
786.153	0.0271623
786.288	0.0275285
786.422	0.0274675
786.557	0.0280168
786.691	0.0274675
786.826	0.0274065
786.961	0.0280168
787.095	0.0277117
787.23	0.0271623
787.364	0.0272844
787.499	0.0274065
787.633	0.0281389
787.768	0.0270402
787.902	0.0278948
788.037	0.0268571
788.172	0.0278337
788.306	0.0276506
788.441	0.0277727
788.575	0.0277117
788.71	0.0279558
788.844	0.0272233
788.979	0.0278337
789.113	0.0281389
789.248	0.0272233
789.383	0.0269181
789.517	0.0274065
789.652	0.026674
789.786	0.0282
789.921	0.0273454
790.055	0.0275285
790.19	0.0269792
790.324	0.0272233
790.459	0.0279558
790.594	0.0270402
790.728	0.0278337
790.863	0.0274675
790.997	0.0279558
791.132	0.0269792
791.266	0.0267961
791.401	0.0273454
791.535	0.0269181
791.67	0.0269792
791.804	0.0270402
791.939	0.028322
792.074	0.0278337
792.208	0.0277117
792.343	0.0275285
792.477	0.0279558
792.612	0.0274065
792.746	0.0284441
792.881	0.0282
793.015	0.0269792
793.15	0.0269181
793.284	0.0286272
793.419	0.0269181
793.553	0.0272233
793.688	0.0286272
793.823	0.0271623
793.957	0.0277117
794.092	0.0280168
794.226	0.0283831
794.361	0.0280779
794.495	0.0282
794.63	0.0289324
794.764	0.0272844
794.899	0.0279558
795.033	0.0279558
795.168	0.0274065
795.302	0.0276506
795.437	0.0275285
795.572	0.0277117
795.706	0.0278948
795.841	0.0273454
795.975	0.0278337
796.11	0.0284441
796.244	0.0275285
796.379	0.0272844
796.513	0.0275285
796.648	0.0275285
796.782	0.0285662
796.917	0.028322
797.051	0.0276506
797.186	0.0272844
797.32	0.0273454
797.455	0.0275285
797.589	0.0287493
797.724	0.0277117
797.859	0.0280779
797.993	0.0291766
798.128	0.0277727
798.262	0.0272844
798.397	0.0282
798.531	0.028322
798.666	0.0291155
798.8	0.0279558
798.935	0.0277117
799.069	0.0285052
799.204	0.0285662
799.338	0.0272233
799.473	0.0280779
799.607	0.0278337
799.742	0.0284441
799.876	0.029848
800.011	0.0275896
800.145	0.0278948
800.28	0.0276506
800.414	0.0278337
800.549	0.0280168
800.683	0.0293597
800.818	0.0278948
800.953	0.0286272
801.087	0.0286272
801.222	0.0288104
801.356	0.0285052
801.491	0.0292987
801.625	0.028322
801.76	0.0286272
801.894	0.0289935
802.029	0.0292987
802.163	0.0292376
802.298	0.0287493
802.432	0.0300922
802.567	0.0289935
802.701	0.0288104
802.836	0.0294207
802.97	0.0297259
803.105	0.0295428
803.239	0.0302142
803.374	0.0295428
803.508	0.0303974
803.643	0.0311298
803.777	0.0301532
803.912	0.0297259
804.046	0.0293597
804.181	0.0307636
804.315	0.0294207
804.45	0.0302142
804.584	0.0317402
804.719	0.031374
804.853	0.0305805
804.988	0.0312519
805.122	0.031435
805.257	0.0312519
805.391	0.0319233
805.526	0.0323506
805.66	0.0318013
805.795	0.0324727
805.929	0.0319844
806.064	0.0324116
806.198	0.033022
806.333	0.0340597
806.467	0.0350974
806.602	0.0357688
806.736	0.0350363
806.871	0.0361961
807.005	0.0368675
807.14	0.0374779
807.274	0.037661
807.409	0.039248
807.543	0.0415675
807.678	0.0425441
807.812	0.0448025
807.947	0.0465116
808.081	0.231582
808.216	0.561191
808.35	1
808.485	1
808.619	1
808.754	1
808.888	1
809.023	1
809.157	1
809.292	1
809.426	1
809.561	1
809.695	1
809.83	1
809.964	1
810.099	1
810.233	1
810.368	1
810.502	1
810.637	0.997558
810.771	1
810.906	0.992858
811.04	0.997314
811.175	0.986388
811.309	0.990844
811.444	0.9765
811.578	0.981322
811.713	0.9577
811.847	0.963621
811.982	0.669535
812.116	0.258927
812.251	0.144723
812.385	0.0803272
812.519	0.0574376
812.654	0.0488921
812.788	0.0457181
812.923	0.0432766
813.057	0.0410792
813.192	0.0405298
813.326	0.0387597
813.461	0.0388207
813.595	0.037722
813.73	0.0369285
813.864	0.0371116
813.999	0.0355857
814.133	0.0350974
814.268	0.0354026
814.402	0.0346701
814.537	0.0338766
814.671	0.0339376
814.806	0.0332052
814.94	0.0324727
815.075	0.0327779
815.209	0.0339376
815.344	0.0311298
815.478	0.0308857
815.612	0.0305805
815.747	0.0310688
815.881	0.0316792
816.016	0.0309467
816.15	0.0311298
816.285	0.0303363
816.419	0.0303363
816.554	0.0301532
816.688	0.0306415
816.823	0.029848
816.957	0.029787
817.092	0.0292987
817.226	0.0292376
817.361	0.0306415
817.495	0.0289935
817.63	0.0294818
817.764	0.0297259
817.898	0.0287493
818.033	0.0294207
818.167	0.0289935
818.302	0.0292376
818.436	0.0292376
818.571	0.0286883
818.705	0.028261
818.84	0.0283831
818.974	0.0289935
819.109	0.0292987
819.243	0.0285662
819.378	0.0292376
819.512	0.0296649
819.646	0.0282
819.781	0.0289324
819.915	0.0284441
820.05	0.0286883
820.184	0.0288104
820.319	0.028261
820.453	0.0280779
820.588	0.0280168
820.722	0.0280779
820.857	0.0287493
820.991	0.028322
821.126	0.0277117
821.26	0.0282
821.394	0.0289324
821.529	0.0282
821.663	0.0282
821.798	0.0272844
821.932	0.0274065
822.067	0.0284441
822.201	0.028261
822.336	0.028322
822.47	0.0277117
822.605	0.0270402
822.739	0.0268571
822.873	0.0275285
823.008	0.0285052
823.142	0.0284441
823.277	0.0280168
823.411	0.0277727
823.546	0.0280168
823.68	0.0279558
823.815	0.0273454
823.949	0.0273454
824.083	0.0280168
824.218	0.028322
824.352	0.0270402
824.487	0.0282
824.621	0.0275285
824.756	0.0279558
824.89	0.0274065
825.025	0.0277117
825.159	0.028261
825.293	0.0275285
825.428	0.0278948
825.562	0.026674
825.697	0.0279558
825.831	0.0281389
825.966	0.0280779
826.1	0.0282
826.235	0.0271013
826.369	0.0272233
826.503	0.0278948
826.638	0.0274675
826.772	0.0278948
826.907	0.0272844
827.041	0.0269181
827.176	0.0282
827.31	0.0274675
827.445	0.0267961
827.579	0.0271013
827.713	0.0265519
827.848	0.0272233
827.982	0.0281389
828.117	0.0279558
828.251	0.0275896
828.386	0.028322
828.52	0.028261
828.654	0.0271623
828.789	0.0280779
828.923	0.0275896
829.058	0.0274675
829.192	0.0275896
829.327	0.0264909
829.461	0.0279558
829.596	0.0268571
829.73	0.0275285
829.864	0.0273454
829.999	0.0273454
830.133	0.0272844
830.268	0.0272233
830.402	0.0277727
830.537	0.0268571
830.671	0.0280168
830.805	0.0280168
830.94	0.0279558
831.074	0.0279558
831.209	0.0274065
831.343	0.0278948
831.478	0.0280779
831.612	0.0278337
831.746	0.0277727
831.881	0.0275896
832.015	0.026613
832.15	0.0277727
832.284	0.0275285
832.418	0.0282
832.553	0.0274675
832.687	0.0277117
832.822	0.0277727
832.956	0.028322
833.091	0.0269792
833.225	0.0274675
833.359	0.028261
833.494	0.0277117
833.628	0.0270402
833.763	0.0281389
833.897	0.0267961
834.032	0.0271623
834.166	0.0274675
834.3	0.0277117
834.435	0.0274675
834.569	0.0275896
834.704	0.0280779
834.838	0.028261
834.972	0.0276506
835.107	0.0274065
835.241	0.0278948
835.376	0.0275285
835.51	0.0274065
835.645	0.0277727
835.779	0.0277117
835.913	0.0280168
836.048	0.0277727
836.182	0.0274065
836.317	0.0267961
836.451	0.0272233
836.585	0.0274675
836.72	0.0278948
836.854	0.0276506
836.989	0.0274675
837.123	0.026674
837.257	0.0273454
837.392	0.0278948
837.526	0.0272844
837.661	0.028261
837.795	0.0280779
837.929	0.0277727
838.064	0.0277727
838.198	0.0274675
838.333	0.0279558
838.467	0.0276506
838.602	0.0279558
838.736	0.0274675
838.87	0.0273454
839.005	0.0274065
839.139	0.0277727
839.274	0.026613
839.408	0.0286883
839.542	0.0272844
839.677	0.0275285
839.811	0.0279558
839.946	0.0277727
840.08	0.0278337
840.214	0.0276506
840.349	0.0277727
840.483	0.0274675
840.618	0.0276506
840.752	0.0275285
840.886	0.0272844
841.021	0.0272844
841.155	0.0280779
841.29	0.0278337
841.424	0.028261
841.558	0.0280168
841.693	0.0275285
841.827	0.026674
841.961	0.0271623
842.096	0.0274065
842.23	0.0270402
842.365	0.0277117
842.499	0.0275896
842.633	0.0272844
842.768	0.026674
842.902	0.0271013
843.037	0.0277117
843.171	0.0275285
843.305	0.0278337
843.44	0.0265519
843.574	0.0274675
843.709	0.0279558
843.843	0.0288714
843.977	0.0270402
844.112	0.0269792
844.246	0.0274675
844.381	0.0276506
844.515	0.0270402
844.649	0.026674
844.784	0.0275896
844.918	0.0275896
845.052	0.0272233
845.187	0.0275285
845.321	0.0275285
845.456	0.028322
845.59	0.0275896
845.724	0.0269792
845.859	0.0277117
845.993	0.0273454
846.128	0.0285662
846.262	0.0271013
846.396	0.0283831
846.531	0.0260636
846.665	0.026674
846.799	0.0279558
846.934	0.0274065
847.068	0.0274065
847.203	0.0273454
847.337	0.0267961
847.471	0.0276506
847.606	0.0280168
847.74	0.0277117
847.874	0.028322
848.009	0.0280779
848.143	0.0275285
848.278	0.0280779
848.412	0.028261
848.546	0.0277117
848.681	0.026735
848.815	0.0279558
848.949	0.0272233
849.084	0.0276506
849.218	0.0276506
849.353	0.0270402
849.487	0.0275285
849.621	0.0276506
849.756	0.0277117
849.89	0.0265519
850.024	0.028322
850.159	0.0279558
850.293	0.028322
850.428	0.0273454
850.562	0.0277727
850.696	0.0286883
850.831	0.0274675
850.965	0.0275896
851.099	0.0270402
851.234	0.026735
851.368	0.0280168
851.502	0.0273454
851.637	0.0274065
851.771	0.0272844
851.906	0.0278948
852.04	0.0275285
852.174	0.0275896
852.309	0.0277727
852.443	0.0281389
852.577	0.0271623
852.712	0.0269181
852.846	0.0277727
852.98	0.0272844
853.115	0.0281389
853.249	0.0271013
853.384	0.0272233
853.518	0.0272233
853.652	0.0282
853.787	0.0271623
853.921	0.026735
854.055	0.0274065
854.19	0.0273454
854.324	0.0272844
854.458	0.0267961
854.593	0.0278337
854.727	0.0283831
854.861	0.0276506
854.996	0.0267961
855.13	0.0275285
855.265	0.0265519
855.399	0.0274065
855.533	0.0277727
855.668	0.0273454
855.802	0.0272844
855.936	0.0275896
856.071	0.0275285
856.205	0.0276506
856.339	0.0265519
856.474	0.026735
856.608	0.0265519
856.742	0.0274675
856.877	0.0271623
857.011	0.0275896
857.145	0.0272844
857.28	0.0270402
857.414	0.0284441
857.549	0.0277727
857.683	0.0269181
857.817	0.0276506
857.952	0.0269181
858.086	0.0272844
858.22	0.0278337
858.355	0.0278948
858.489	0.0275896
858.623	0.0273454
858.758	0.0271623
858.892	0.0278948
859.026	0.0279558
859.161	0.0278337
859.295	0.0270402
859.429	0.0276506
859.564	0.0284441
859.698	0.0277117
859.832	0.0274675
859.967	0.0274065
860.101	0.0278948
860.235	0.028322
860.37	0.0278948
860.504	0.0285662
860.638	0.0278948
860.773	0.0272233
860.907	0.0274675
861.041	0.0274675
861.176	0.0280168
861.31	0.0269792
861.444	0.0271013
861.579	0.0272233
861.713	0.0278337
861.847	0.0277727
861.982	0.0272233
862.116	0.0276506
862.25	0.0278337
862.385	0.0276506
862.519	0.0281389
862.653	0.0274675
862.788	0.0275896
862.922	0.0277117
863.056	0.028322
863.191	0.0277727
863.325	0.0278948
863.459	0.0278337
863.594	0.0274065
863.728	0.0275285
863.862	0.0271623
863.997	0.0277117
864.131	0.0278948
864.265	0.028261
864.4	0.0276506
864.534	0.0276506
864.668	0.0274675
864.803	0.0278948
864.937	0.0272233
865.071	0.0271623
865.206	0.026735
865.34	0.0278337
865.474	0.0275896
865.609	0.0275285
865.743	0.0275896
865.877	0.0270402
866.012	0.0270402
866.146	0.0269792
866.28	0.0278948
866.415	0.0272844
866.549	0.028322
866.683	0.0275285
866.818	0.028322
866.952	0.0273454
867.086	0.0280168
867.221	0.0276506
867.355	0.0274675
867.489	0.0269792
867.623	0.0263688
867.758	0.0283831
867.892	0.0275896
868.026	0.0270402
868.161	0.0276506
868.295	0.0277727
868.429	0.0272233
868.564	0.026613
868.698	0.0269181
868.832	0.0275285
868.967	0.028322
869.101	0.0273454
869.235	0.0280168
869.37	0.0274065
869.504	0.0280168
869.638	0.0271623
869.773	0.0272233
869.907	0.0264909
870.041	0.0267961
870.175	0.0274065
870.31	0.026613
870.444	0.0274675
870.578	0.0270402
870.713	0.0279558
870.847	0.0262467
870.981	0.0275896
871.116	0.0282
871.25	0.0272844
871.384	0.0274675
871.519	0.0275285
871.653	0.0274065
871.787	0.0273454
871.921	0.0277117
872.056	0.0277727
872.19	0.0271013
872.324	0.0275896
872.459	0.0277727
872.593	0.0271623
872.727	0.0272844
872.862	0.0277727
872.996	0.0280779
873.13	0.0272233
873.264	0.0275896
873.399	0.0273454
873.533	0.0273454
873.667	0.0278948
873.802	0.0276506
873.936	0.0268571
874.07	0.0277117
874.205	0.0277117
874.339	0.0271013
874.473	0.0281389
874.607	0.0269792
874.742	0.0278337
874.876	0.0277727
875.01	0.0272844
875.145	0.0271623
875.279	0.0277727
875.413	0.0282
875.548	0.0272844
875.682	0.0274675
875.816	0.0274675
875.95	0.0278948
876.085	0.0270402
876.219	0.0275285
876.353	0.0276506
876.488	0.0280779
876.622	0.0271623
876.756	0.0274675
876.89	0.0263688
877.025	0.026674
877.159	0.0269792
877.293	0.0277727
877.428	0.028261
877.562	0.0278948
877.696	0.0278948
877.83	0.0286883
877.965	0.0277727
878.099	0.0280779
878.233	0.0273454
878.368	0.0273454
878.502	0.0272233
878.636	0.0280168
878.77	0.0271623
878.905	0.0278337
879.039	0.0272844
879.173	0.028322
879.308	0.0285052
879.442	0.0277727
879.576	0.0269181
879.71	0.026674
879.845	0.0272844
879.979	0.0271623
880.113	0.0274675
880.248	0.0272844
880.382	0.0268571
880.516	0.0272844
880.65	0.0279558
880.785	0.0270402
880.919	0.0274675
881.053	0.0276506
881.188	0.0273454
881.322	0.0268571
881.456	0.0276506
881.59	0.0272844
881.725	0.0270402
881.859	0.0277727
881.993	0.026735
882.127	0.0270402
882.262	0.0275896
882.396	0.0272844
882.53	0.0274675
882.665	0.026674
882.799	0.0275896
882.933	0.0273454
883.067	0.0285662
883.202	0.0282
883.336	0.0274675
883.47	0.0274065
883.604	0.0273454
883.739	0.0274065
883.873	0.026613
884.007	0.0277117
884.142	0.0273454
884.276	0.0271013
884.41	0.0271623
884.544	0.0273454
884.679	0.0277117
884.813	0.026735
884.947	0.0280168
885.081	0.0270402
885.216	0.0276506
885.35	0.0275285
885.484	0.0269181
885.618	0.0279558
885.753	0.0277727
885.887	0.0275285
886.021	0.0278948
886.155	0.0272233
886.29	0.0269792
886.424	0.0277117
886.558	0.0275896
886.693	0.0269792
886.827	0.0281389
886.961	0.0264298
887.095	0.0277117
887.23	0.0261857
887.364	0.0278337
887.498	0.0267961
887.632	0.0275896
887.767	0.0268571
887.901	0.0280168
888.035	0.0277117
888.169	0.0271623
888.304	0.0278948
888.438	0.0271013
888.572	0.0275285
888.706	0.0278337
888.841	0.0275285
888.975	0.0279558
889.109	0.0277117
889.243	0.0278337
889.378	0.0282
889.512	0.0274065
889.646	0.0277727
889.78	0.0270402
889.915	0.0280168
890.049	0.0285662
890.183	0.0269792
890.317	0.0275285
890.452	0.0279558
890.586	0.0275285
890.72	0.0275285
890.854	0.0272233
890.989	0.0280779
891.123	0.0273454
891.257	0.0284441
891.391	0.0263688
891.526	0.0272844
891.66	0.0270402
891.794	0.0277727
891.928	0.0274065
892.063	0.026613
892.197	0.0277117
892.331	0.0284441
892.465	0.0277727
892.6	0.0272844
892.734	0.0264298
892.868	0.026674
893.002	0.0286883
893.137	0.0279558
893.271	0.0269181
893.405	0.028261
893.539	0.0272844
893.674	0.0272233
893.808	0.0281389
893.942	0.0272233
894.076	0.0276506
894.21	0.0274675
894.345	0.0278337
894.479	0.0279558
894.613	0.0278337
894.747	0.0273454
894.882	0.0268571
895.016	0.0279558
895.15	0.0272844
895.284	0.0268571
895.419	0.0271623
895.553	0.0278948
895.687	0.0269792
895.821	0.0274065
895.956	0.0278948
896.09	0.0278337
896.224	0.0274065
896.358	0.0274675
896.492	0.0277727
896.627	0.0274065
896.761	0.0271013
896.895	0.0271013
897.029	0.0275896
897.164	0.026674
897.298	0.0270402
897.432	0.0276506
897.566	0.0282
897.701	0.0274675
897.835	0.0271623
897.969	0.0274065
898.103	0.026674
898.237	0.0277117
898.372	0.0270402
898.506	0.0277117
898.64	0.0275896
898.774	0.0275285
898.909	0.0274675
899.043	0.0278337
899.177	0.0270402
899.311	0.0278948
899.445	0.0280779
899.58	0.0275285
899.714	0.0274675
899.848	0.0282
899.982	0.0278337
900.117	0.0274065
900.251	0.0278948
900.385	0.0270402
900.519	0.0268571
900.653	0.0278337
900.788	0.0273454
900.922	0.0269181
901.056	0.0271623
901.19	0.0276506
901.325	0.0275896
901.459	0.0280168
901.593	0.0272233
901.727	0.0271013
901.861	0.0273454
901.996	0.0276506
902.13	0.0274065
902.264	0.028261
902.398	0.0278337
902.532	0.0281389
902.667	0.0272233
902.801	0.0282
902.935	0.0278337
903.069	0.0269181
903.204	0.0272844
903.338	0.0275285
903.472	0.0278948
903.606	0.0272844
903.74	0.0270402
903.875	0.0272844
904.009	0.0272844
904.143	0.0271013
904.277	0.0276506
904.411	0.0272844
904.546	0.0274675
904.68	0.0280779
904.814	0.0269792
904.948	0.0275896
905.082	0.0275285
905.217	0.0277727
905.351	0.0278948
905.485	0.0279558
905.619	0.0267961
905.753	0.0276506
905.888	0.0271013
906.022	0.0280779
906.156	0.0277117
906.29	0.0285052
906.424	0.026613
906.559	0.0274675
906.693	0.0282
906.827	0.0286272
906.961	0.0275285
907.095	0.0283831
907.23	0.0274065
907.364	0.0280168
907.498	0.0271623
907.632	0.0271013
907.766	0.0280168
907.901	0.028322
908.035	0.0275285
908.169	0.0275896
908.303	0.0271013
908.437	0.0261246
908.572	0.0277727
908.706	0.0274065
908.84	0.0278337
908.974	0.0271623
909.108	0.0272844
909.243	0.0274065
909.377	0.0269181
909.511	0.0272233
909.645	0.0264298
909.779	0.0272233
909.914	0.0270402
910.048	0.0275285
910.182	0.026735
910.316	0.0279558
910.45	0.0280168
910.585	0.0274065
910.719	0.0277727
910.853	0.0277117
910.987	0.0272844
911.121	0.0286272
911.255	0.0277727
911.39	0.0279558
911.524	0.0272233
911.658	0.0274065
911.792	0.0275285
911.926	0.0271623
912.061	0.0273454
912.195	0.0275285
912.329	0.0272844
912.463	0.0270402
912.597	0.0272844
912.732	0.0280168
912.866	0.0271013
913	0.0275285
913.134	0.0274675
913.268	0.0280168
913.402	0.0284441
913.537	0.0279558
913.671	0.028261
913.805	0.0275285
913.939	0.0278948
914.073	0.0276506
914.208	0.0275285
914.342	0.0274065
914.476	0.0271013
914.61	0.026674
914.744	0.0278337
914.878	0.0278337
915.013	0.0278337
915.147	0.0277727
915.281	0.0269181
915.415	0.0272233
915.549	0.0272844
915.683	0.0272233
915.818	0.0273454
915.952	0.0285052
916.086	0.0275896
916.22	0.028261
916.354	0.0277117
916.488	0.0277117
916.623	0.0274675
916.757	0.0278337
916.891	0.0270402
917.025	0.0278337
917.159	0.0268571
917.293	0.0273454
917.428	0.0271623
917.562	0.0264298
917.696	0.0278948
917.83	0.0273454
917.964	0.0278948
918.098	0.0275896
918.233	0.0275896
918.367	0.0278948
918.501	0.0272233
918.635	0.0269181
918.769	0.0274675
918.903	0.0276506
919.038	0.028261
919.172	0.0280779
919.306	0.0272844
919.44	0.0276506
919.574	0.0267961
919.708	0.0278337
919.843	0.0271623
919.977	0.0267961
920.111	0.0271623
920.245	0.0269181
920.379	0.0270402
920.513	0.0274675
920.648	0.0275285
920.782	0.0279558
920.916	0.0270402
921.05	0.026735
921.184	0.0277117
921.318	0.0275896
921.453	0.0269181
921.587	0.026674
921.721	0.0273454
921.855	0.0269181
921.989	0.0269792
922.123	0.026613
922.257	0.0269792
922.392	0.0271013
922.526	0.0272844
922.66	0.0271013
922.794	0.0275285
922.928	0.0275896
923.062	0.0281389
923.197	0.0274675
923.331	0.0280779
923.465	0.0272844
923.599	0.0278948
923.733	0.0276506
923.867	0.0288104
924.001	0.0271013
924.136	0.0275285
924.27	0.0269181
924.404	0.0272844
924.538	0.0280779
924.672	0.0269792
924.806	0.0275896
924.94	0.0282
925.075	0.0272844
925.209	0.0277117
925.343	0.0272233
925.477	0.0274675
925.611	0.0278337
925.745	0.0270402
925.879	0.0265519
926.014	0.0275285
926.148	0.0272233
926.282	0.0272844
926.416	0.0274065
926.55	0.0277727
926.684	0.0278948
926.818	0.0272844
926.953	0.0282
927.087	0.0277727
927.221	0.0269181
927.355	0.0274675
927.489	0.0278948
927.623	0.0278337
927.757	0.0269792
927.892	0.0269792
928.026	0.0277117
928.16	0.0277727
928.294	0.0271623
928.428	0.0273454
928.562	0.0272233
928.696	0.0277117
928.831	0.0272233
928.965	0.0276506
929.099	0.0275896
929.233	0.0277117
929.367	0.0270402
929.501	0.0275896
929.635	0.0265519
929.769	0.0282
929.904	0.0278337
930.038	0.0277117
930.172	0.0268571
930.306	0.0276506
930.44	0.0275896
930.574	0.0269792
930.708	0.0272233
930.843	0.0276506
930.977	0.0274675
931.111	0.0278337
931.245	0.0276506
931.379	0.0274065
931.513	0.0280779
931.647	0.0280779
931.781	0.0276506
931.916	0.0275285
932.05	0.028261
932.184	0.0272233
932.318	0.0278948
932.452	0.0274065
932.586	0.0269181
932.72	0.0280779
932.854	0.0273454
932.989	0.0274675
933.123	0.0269792
933.257	0.0280168
933.391	0.0270402
933.525	0.0282
933.659	0.0272844
933.793	0.0280779
933.927	0.0275285
934.061	0.0273454
934.196	0.0271013
934.33	0.0280168
934.464	0.0276506
934.598	0.0272233
934.732	0.0276506
934.866	0.0277117
935	0.0278948
935.134	0.0271013
935.269	0.0271623
935.403	0.0275285
935.537	0.0275285
935.671	0.0270402
935.805	0.0275285
935.939	0.0276506
936.073	0.0275285
936.207	0.0277727
936.341	0.0276506
936.476	0.0277117
936.61	0.0275896
936.744	0.0277727
936.878	0.0276506
937.012	0.0275285
937.146	0.0277727
937.28	0.0275896
937.414	0.0283831
937.548	0.028322
937.683	0.0281389
937.817	0.0278337
937.951	0.0273454
938.085	0.0271623
938.219	0.0271623
938.353	0.0273454
938.487	0.0273454
938.621	0.0276506
938.755	0.0269181
938.889	0.0270402
939.024	0.0274675
939.158	0.026674
939.292	0.0274675
939.426	0.0277117
939.56	0.0278948
939.694	0.0285052
939.828	0.0278337
939.962	0.0271623
940.096	0.0276506
940.231	0.0274065
940.365	0.0275896
940.499	0.0277117
940.633	0.0278337
940.767	0.0268571
940.901	0.0270402
941.035	0.0278337
941.169	0.0278948
941.303	0.028261
941.437	0.0273454
941.571	0.0276506
941.706	0.0272233
941.84	0.0280168
941.974	0.0267961
942.108	0.0273454
942.242	0.0273454
942.376	0.0274675
942.51	0.0273454
942.644	0.0274065
942.778	0.0277727
942.912	0.0282
943.047	0.0276506
943.181	0.0284441
943.315	0.0269181
943.449	0.0278337
943.583	0.0277727
943.717	0.0280779
943.851	0.0278948
943.985	0.0269792
944.119	0.0271013
944.253	0.0267961
944.387	0.0281389
944.522	0.0282
944.656	0.0258194
944.79	0.0280168
944.924	0.0276506
945.058	0.0269792
945.192	0.0278337
945.326	0.0269181
945.46	0.0271623
945.594	0.0271623
945.728	0.0277727
945.862	0.0274675
945.996	0.0274675
946.131	0.0278337
946.265	0.0274065
946.399	0.0272233
946.533	0.0271623
946.667	0.0274065
946.801	0.0274675
946.935	0.0272844
947.069	0.0269181
947.203	0.0278948
947.337	0.0268571
947.471	0.026735
947.605	0.0283831
947.739	0.0275285
947.874	0.0279558
948.008	0.0272233
948.142	0.0275896
948.276	0.0274675
948.41	0.0274675
948.544	0.0274675
948.678	0.0275285
948.812	0.0269792
948.946	0.0272233
949.08	0.0274065
949.214	0.0281389
949.348	0.0270402
949.482	0.0269181
949.617	0.026735
949.751	0.0274065
949.885	0.026674
950.019	0.0278337
950.153	0.0271623
950.287	0.0278337
950.421	0.028261
950.555	0.0268571
950.689	0.0280168
950.823	0.0271623
950.957	0.0281389
951.091	0.0269181
951.225	0.0277727
951.359	0.0272233
951.493	0.0277727
951.628	0.0278337
951.762	0.0280779
951.896	0.0270402
952.03	0.0274675
952.164	0.0269792
952.298	0.0274065
952.432	0.0280168
952.566	0.0275285
952.7	0.0275896
952.834	0.0277117
952.968	0.0284441
953.102	0.0274065
953.236	0.0276506
953.37	0.0280779
953.504	0.0274065
953.639	0.0272844
953.773	0.0272233
953.907	0.0275896
954.041	0.0278337
954.175	0.0270402
954.309	0.0271623
954.443	0.0269792
954.577	0.028322
954.711	0.0276506
954.845	0.0269181
954.979	0.0272844
955.113	0.0278337
955.247	0.0273454
955.381	0.0276506
955.515	0.0276506
955.649	0.0269792
955.783	0.0278948
955.917	0.0268571
956.052	0.0278337
956.186	0.0280168
956.32	0.0288714
956.454	0.0278337
956.588	0.0272233
956.722	0.0271623
956.856	0.0270402
956.99	0.0278948
957.124	0.0276506
957.258	0.0275896
957.392	0.0282
957.526	0.0282
957.66	0.0271013
957.794	0.0269792
957.928	0.0272233
958.062	0.0271623
958.196	0.0272233
958.33	0.0279558
958.464	0.0277117
958.598	0.0274675
958.733	0.0274065
958.867	0.0277727
959.001	0.0281389
959.135	0.0279558
959.269	0.0277727
959.403	0.0272844
959.537	0.0270402
959.671	0.028322
959.805	0.0277117
959.939	0.0273454
960.073	0.028322
960.207	0.0269792
960.341	0.0276506
960.475	0.0283831
960.609	0.0268571
960.743	0.0280168
960.877	0.0275896
961.011	0.0280779
961.145	0.0279558
961.279	0.0280779
961.413	0.0281389
961.547	0.0271013
961.681	0.0272844
961.815	0.0277117
961.949	0.0277117
962.083	0.0282
962.218	0.028261
962.352	0.0269792
962.486	0.0279558
962.62	0.0274675
962.754	0.0271623
962.888	0.0283831
963.022	0.0274675
963.156	0.0273454
963.29	0.0280779
963.424	0.0271013
963.558	0.0278337
963.692	0.0274065
963.826	0.0272233
963.96	0.0269181
964.094	0.0276506
964.228	0.0284441
964.362	0.0272844
964.496	0.0272233
964.63	0.0272233
964.764	0.0275896
964.898	0.0277117
965.032	0.0273454
965.166	0.0279558
965.3	0.0263688
965.434	0.026735
965.568	0.0278337
965.702	0.0280779
965.836	0.0280779
965.97	0.0270402
966.104	0.0269792
966.238	0.0275896
966.372	0.0274065
966.506	0.0277727
966.64	0.0283831
966.774	0.0274065
966.908	0.0273454
967.043	0.0280168
967.177	0.0275285
967.311	0.0272844
967.445	0.0275285
967.579	0.0269792
967.713	0.0277727
967.847	0.0274675
967.981	0.0271623
968.115	0.0277117
968.249	0.0274675
968.383	0.0263688
968.517	0.026735
968.651	0.0273454
968.785	0.0275896
968.919	0.0282
969.053	0.0279558
969.187	0.0269792
969.321	0.0280779
969.455	0.0275285
969.589	0.0280168
969.723	0.028322
969.857	0.0274065
969.991	0.0270402
970.125	0.0284441
970.259	0.0269181
970.393	0.0275285
970.527	0.0272233
970.661	0.0275285
970.795	0.0277117
970.929	0.0271623
971.063	0.0269792
971.197	0.0275896
971.331	0.0277117
971.465	0.0263688
971.599	0.0274065
971.733	0.0282
971.867	0.0272233
972.001	0.0273454
972.135	0.0279558
972.269	0.0278948
972.403	0.0274675
972.537	0.0269181
972.671	0.0272844
972.805	0.0275896
972.939	0.0285052
973.073	0.0275896
973.207	0.0263688
973.341	0.0276506
973.475	0.0271013
973.609	0.0275285
973.743	0.0284441
973.877	0.0269181
974.011	0.0276506
974.145	0.0270402
974.279	0.0275896
974.413	0.0273454
974.547	0.0274065
974.681	0.0274065
974.815	0.028261
974.949	0.0268571
975.083	0.0275896
975.217	0.0278948
975.351	0.0274065
975.485	0.028261
975.619	0.0274065
975.753	0.0274675
975.887	0.0277117
976.021	0.0265519
976.155	0.0278948
976.289	0.0271013
976.423	0.0264909
976.557	0.0277727
976.691	0.0280779
976.825	0.0282
976.959	0.0280168
977.093	0.0277117
977.227	0.0275285
977.361	0.0280168
977.495	0.0271013
977.629	0.0271623
977.763	0.0285052
977.897	0.0263688
978.031	0.0271623
978.165	0.0275285
978.299	0.0272844
978.433	0.0277117
978.567	0.0284441
978.701	0.0273454
978.835	0.026613
978.969	0.0285052
979.103	0.0278948
979.237	0.0285052
979.371	0.0276506
979.505	0.0272233
979.639	0.0272844
979.773	0.0270402
979.907	0.0272844
980.041	0.0274675
980.175	0.0270402
980.308	0.0277727
980.442	0.0261857
980.576	0.026674
980.71	0.0275285
980.844	0.0269792
980.978	0.028261
981.112	0.0274065
981.246	0.0270402
981.38	0.0272844
981.514	0.0274675
981.648	0.0271623
981.782	0.028322
981.916	0.0285052
982.05	0.0284441
982.184	0.0274675
982.318	0.0268571
982.452	0.0273454
982.586	0.0278948
982.72	0.0275896
982.854	0.0271623
982.988	0.0271013
983.122	0.0272233
983.256	0.0271623
983.39	0.0269181
983.524	0.0277727
983.658	0.0277727
983.792	0.0277727
983.926	0.0278948
984.06	0.0265519
984.194	0.0284441
984.328	0.0279558
984.462	0.0269792
984.596	0.0275285
984.73	0.0272233
984.864	0.0276506
984.998	0.0274065
985.132	0.0271623
985.265	0.0272844
985.399	0.0269181
985.533	0.0269792
985.667	0.0282
985.801	0.0275285
985.935	0.0273454
986.069	0.0278948
986.203	0.0280168
986.337	0.0272233
986.471	0.0278337
986.605	0.0276506
986.739	0.0277117
986.873	0.0285052
987.007	0.0272233
987.141	0.0275285
987.275	0.0286883
987.409	0.0269181
987.543	0.0270402
987.677	0.0272233
987.811	0.0272844
987.945	0.0277727
988.079	0.0273454
988.213	0.0273454
988.347	0.0271623
988.481	0.0271013
988.614	0.0277117
988.748	0.0272233
988.882	0.0277117
989.016	0.0274065
989.15	0.028261
989.284	0.0284441
989.418	0.0278948
989.552	0.0269181
989.686	0.0277117
989.82	0.0271013
989.954	0.0278948
990.088	0.0275285
990.222	0.0274675
990.356	0.0267961
990.49	0.0283831
990.624	0.0270402
990.758	0.028261
990.892	0.0278337
991.026	0.0272233
991.16	0.0280779
991.294	0.0276506
991.427	0.0272233
991.561	0.028322
991.695	0.0280779
991.829	0.0268571
991.963	0.0278948
992.097	0.0282
992.231	0.0280779
992.365	0.0274065
992.499	0.0280168
992.633	0.0269792
992.767	0.0275285
992.901	0.0275285
993.035	0.0272844
993.169	0.0269792
993.303	0.0274065
993.437	0.0274065
993.571	0.026735
993.704	0.0275896
993.838	0.0277727
993.972	0.0275285
994.106	0.0271623
994.24	0.0280779
994.374	0.0274675
994.508	0.0273454
994.642	0.0277117
994.776	0.0277727
994.91	0.0277117
995.044	0.0280779
995.178	0.0271623
995.312	0.0282
995.446	0.0281389
995.58	0.0275285
995.714	0.0273454
995.847	0.0272844
995.981	0.0269181
996.115	0.0275285
996.249	0.0270402
996.383	0.0277727
996.517	0.0270402
996.651	0.0286272
996.785	0.0274065
996.919	0.0277117
997.053	0.0274065
997.187	0.0277727
997.321	0.0272844
997.455	0.0277117
997.589	0.0282
997.722	0.0271623
997.856	0.028322
997.99	0.0275285
998.124	0.0271013
998.258	0.0271623
998.392	0.0269181
998.526	0.0269181
998.66	0.0272844
998.794	0.0273454
998.928	0.0279558
999.062	0.0277727
999.196	0.0277117
999.33	0.0279558
999.464	0.0275285
999.597	0.0269792
999.731	0.0272844
999.865	0.0272233
999.999	0.0272844
1000.13	0.0277727
1000.27	0.0278337
1000.4	0.0276506
1000.53	0.0271013
1000.67	0.0274675
1000.8	0.0273454
1000.94	0.0271623
1001.07	0.0271623
1001.2	0.0274065
1001.34	0.0273454
1001.47	0.0276506
1001.61	0.028322
1001.74	0.0270402
1001.87	0.0277727
1002.01	0.0264909
1002.14	0.0274675
1002.28	0.0277727
1002.41	0.0274065
1002.54	0.0272233
1002.68	0.0277727
1002.81	0.0273454
1002.95	0.0275896
1003.08	0.0279558
1003.21	0.0268571
1003.35	0.0288714
1003.48	0.0278948
1003.61	0.0280168
1003.75	0.0274065
1003.88	0.0280168
1004.02	0.0274065
1004.15	0.0273454
1004.28	0.0280779
1004.42	0.0276506
1004.55	0.0271013
1004.69	0.0272844
1004.82	0.0272233
1004.95	0.0272844
1005.09	0.0277117
1005.22	0.0276506
1005.36	0.0269181
1005.49	0.0275896
1005.62	0.0279558
1005.76	0.0277117
1005.89	0.0278337
1006.03	0.026735
1006.16	0.026613
1006.29	0.0268571
1006.43	0.0278948
1006.56	0.0277727
1006.69	0.0277117
1006.83	0.0273454
1006.96	0.0278337
1007.1	0.0276506
1007.23	0.0280779
1007.36	0.0271013
1007.5	0.0275896
1007.63	0.0274675
1007.77	0.0281389
1007.9	0.0275285
1008.03	0.026735
1008.17	0.0272844
1008.3	0.0275896
1008.44	0.0275285
1008.57	0.0269792
1008.7	0.0275285
1008.84	0.0271623
1008.97	0.0275896
1009.1	0.0278948
1009.24	0.0283831
1009.37	0.0275896
1009.51	0.0272233
1009.64	0.026735
1009.77	0.0273454
1009.91	0.0281389
1010.04	0.0277117
1010.18	0.0272844
1010.31	0.0275896
1010.44	0.0276506
1010.58	0.0271013
1010.71	0.0276506
1010.85	0.0274065
1010.98	0.0268571
1011.11	0.0282
1011.25	0.0273454
1011.38	0.0271623
1011.51	0.0269792
1011.65	0.0278948
1011.78	0.0275285
1011.92	0.0282
1012.05	0.0269181
1012.18	0.0272233
1012.32	0.0280168
1012.45	0.0275896
1012.59	0.0280779
1012.72	0.0270402
1012.85	0.0273454
1012.99	0.0279558
1013.12	0.0276506
1013.26	0.0270402
1013.39	0.0272233
1013.52	0.0272844
1013.66	0.028322
1013.79	0.0272844
1013.92	0.026613
1014.06	0.0267961
1014.19	0.0271623
1014.33	0.0269792
1014.46	0.0271623
1014.59	0.0274065
1014.73	0.0275285
1014.86	0.0274675
1015	0.0277727
1015.13	0.0277727
1015.26	0.0276506
1015.4	0.0279558
1015.53	0.0265519
1015.67	0.0272233
1015.8	0.0268571
1015.93	0.026735
1016.07	0.0280168
1016.2	0.0271623
1016.33	0.0273454
1016.47	0.0280168
1016.6	0.0275896
1016.74	0.0271623
1016.87	0.0273454
1017	0.0270402
1017.14	0.0272233
1017.27	0.0272233
1017.41	0.0274675
1017.54	0.0274675
1017.67	0.0277117
1017.81	0.0275896
1017.94	0.0282
1018.07	0.0277117
1018.21	0.0272844
1018.34	0.0272844
1018.48	0.0278337
1018.61	0.0278337
1018.74	0.0272844
1018.88	0.0278337
1019.01	0.0280168
1019.15	0.0277727
1019.28	0.0267961
1019.41	0.0271623
1019.55	0.0268571
1019.68	0.0271623
1019.82	0.0275896
1019.95	0.0269181
1020.08	0.0274675
1020.22	0.0272233
1020.35	0.0272844
1020.48	0.0275896
1020.62	0.0275285
1020.75	0.0285662
1020.89	0.0275896
1021.02	0.0276506
1021.15	0.0269181
1021.29	0.0285052
1021.42	0.0280779
1021.56	0.0277117
1021.69	0.0275285
1021.82	0.0277117
1021.96	0.0270402
1022.09	0.0280168
1022.22	0.0275896
1022.36	0.0280779
1022.49	0.0278337
1022.63	0.0277117
1022.76	0.0278337
1022.89	0.0278948
1023.03	0.0268571
1023.16	0.026613
1023.3	0.0275896
1023.43	0.0279558
1023.56	0.028261
1023.7	0.0271623
1023.83	0.026735
1023.96	0.0277117
1024.1	0.0278337
1024.23	0.0280779
1024.37	0.0274675
1024.5	0.0278337
1024.63	0.0264909
1024.77	0.026735
1024.9	0.0278337
1025.04	0.0271623
1025.17	0.0271013
1025.3	0.0285662
1025.44	0.0275285
1025.57	0.0278337
1025.7	0.0273454
1025.84	0.0271013
1025.97	0.0272844
1026.11	0.0272844
1026.24	0.0283831
1026.37	0.0273454
1026.51	0.0277727
1026.64	0.0277727
1026.78	0.0272233
1026.91	0.0275896
1027.04	0.0275285
1027.18	0.0271013
1027.31	0.0273454
1027.44	0.0263078
1027.58	0.0274675
1027.71	0.0271013
1027.85	0.0272233
1027.98	0.0281389
1028.11	0.0267961
1028.25	0.0277117
1028.38	0.0279558
1028.52	0.0270402
1028.65	0.0265519
1028.78	0.0281389
1028.92	0.0278948
1029.05	0.0273454
1029.18	0.0274675
1029.32	0.0271013
1029.45	0.0277727
1029.59	0.0282
1029.72	0.0275896
1029.85	0.0280168
1029.99	0.0273454
1030.12	0.0273454
1030.26	0.0270402
1030.39	0.0269181
1030.52	0.0269792
1030.66	0.0280779
1030.79	0.0275896
1030.92	0.0269181
1031.06	0.0275285
1031.19	0.0269792
1031.33	0.0272233
1031.46	0.0277727
1031.59	0.0280779
1031.73	0.0278337
1031.86	0.0276506
1031.99	0.0280168
1032.13	0.0275896
1032.26	0.0278337
1032.4	0.0273454
1032.53	0.0279558
1032.66	0.0268571
1032.8	0.0275285
1032.93	0.0272233
1033.07	0.0273454
1033.2	0.0264298
1033.33	0.0274065
1033.47	0.0274065
1033.6	0.0275896
1033.73	0.0277117
1033.87	0.0277117
1034	0.0277727
1034.14	0.0272844
1034.27	0.0275896
1034.4	0.0270402
1034.54	0.0276506
1034.67	0.0272844
1034.81	0.0268571
1034.94	0.0274675
1035.07	0.0285662
1035.21	0.0271623
1035.34	0.026735
1035.47	0.0275285
1035.61	0.0282
1035.74	0.0277117
1035.88	0.0280168
1036.01	0.0277117
1036.14	0.0275285
1036.28	0.0274065
1036.41	0.0272844
1036.54	0.0272233
1036.68	0.026613
1036.81	0.028322
1036.95	0.0275285
1037.08	0.0272844
1037.21	0.0272233
1037.35	0.0271013
1037.48	0.0271623
1037.62	0.0273454
1037.75	0.0279558
1037.88	0.0274065
1038.02	0.0273454
1038.15	0.0274065
1038.28	0.0269181
1038.42	0.0270402
1038.55	0.0275896
1038.69	0.0278337
1038.82	0.0272233
1038.95	0.0274675
1039.09	0.026613
1039.22	0.0263078
1039.35	0.0277117
1039.49	0.0271623
1039.62	0.0280168
1039.76	0.0282
1039.89	0.0276506
1040.02	0.0272233
1040.16	0.0273454
1040.29	0.0274675
1040.43	0.0280168
1040.56	0.0282
1040.69	0.0271013
1040.83	0.0264909
1040.96	0.0275896
1041.09	0.0279558
1041.23	0.0272233
1041.36	0.0274675
1041.5	0.026735
1041.63	0.0275285
1041.76	0.0282
1041.9	0.0275285
1042.03	0.0272233
1042.16	0.0264298
1042.3	0.0275896
1042.43	0.026613
1042.57	0.0269181
1042.7	0.0269181
1042.83	0.0274675
1042.97	0.0273454
1043.1	0.0268571
1043.23	0.0269792
1043.37	0.0277117
1043.5	0.0294207
1043.64	0.0278337
1043.77	0.0280779
1043.9	0.0274675
1044.04	0.0274065
1044.17	0.0279558
1044.31	0.0272844
1044.44	0.0271623
1044.57	0.0271623
1044.71	0.028261
1044.84	0.0271013
1044.97	0.0272233
1045.11	0.0276506
1045.24	0.0278948
1045.38	0.0277727
1045.51	0.0281389
1045.64	0.0280779
1045.78	0.0276506
1045.91	0.0273454
1046.04	0.0274065
1046.18	0.0275896
1046.31	0.0271623
1046.45	0.0277727
1046.58	0.026735
1046.71	0.0271623
1046.85	0.0278948
1046.98	0.0280168
1047.11	0.028261
1047.25	0.0275285
1047.38	0.0271623
1047.52	0.0279558
1047.65	0.0279558
1047.78	0.0278337
1047.92	0.0271013
1048.05	0.0277117
1048.18	0.0274065
1048.32	0.0274065
1048.45	0.0275896
1048.59	0.0280168
1048.72	0.0272844
1048.85	0.0278337
1048.99	0.0264909
1049.12	0.0274065
1049.25	0.0280779
1049.39	0.0272844
1049.52	0.0278948
1049.66	0.0275285
1049.79	0.0278337
1049.92	0.0278337
1050.06	0.0272844
1050.19	0.0280779
1050.33	0.0267961
1050.46	0.028322
1050.59	0.0276506
1050.73	0.0274675
1050.86	0.0265519
1050.99	0.0279558
1051.13	0.026735
1051.26	0.0272233
1051.4	0.0278948
1051.53	0.0270402
1051.66	0.0275896
1051.8	0.0270402
1051.93	0.0275285
1052.06	0.0285052
1052.2	0.0267961
1052.33	0.0276506
1052.47	0.0278948
1052.6	0.0275896
1052.73	0.0279558
1052.87	0.0274675
1053	0.0271623
1053.13	0.0279558
1053.27	0.0275896
1053.4	0.0275896
1053.54	0.026674
1053.67	0.0274065
1053.8	0.0277117
1053.94	0.0263078
1054.07	0.028322
1054.2	0.0279558
1054.34	0.0274675
1054.47	0.0273454
1054.61	0.0279558
1054.74	0.0277727
1054.87	0.0272233
1055.01	0.026735
1055.14	0.0269792
1055.27	0.0275285
1055.41	0.0275285
1055.54	0.0273454
1055.68	0.0274675
1055.81	0.0275285
1055.94	0.0274675
1056.08	0.0273454
1056.21	0.0270402
1056.34	0.0278337
1056.48	0.0277727
1056.61	0.0271623
1056.75	0.0277727
1056.88	0.0272233
1057.01	0.0272844
1057.15	0.028322
1057.28	0.0275896
1057.41	0.026735
1057.55	0.0276506
1057.68	0.0271623
1057.82	0.0277117
1057.95	0.0268571
1058.08	0.0272233
1058.22	0.0277727
1058.35	0.0274065
1058.48	0.0267961
1058.62	0.0278948
1058.75	0.0274065
1058.89	0.0272844
1059.02	0.0276506
1059.15	0.026613
1059.29	0.0279558
1059.42	0.0270402
1059.55	0.0282
1059.69	0.0280168
1059.82	0.0275896
1059.96	0.0274065
1060.09	0.0270402
1060.22	0.0273454
1060.36	0.0277117
1060.49	0.0274065
1060.62	0.0269792
1060.76	0.0271013
1060.89	0.0268571
1061.03	0.0275896
1061.16	0.0278337
1061.29	0.026735
1061.43	0.0269181
1061.56	0.0274675
1061.69	0.0270402
1061.83	0.0267961
1061.96	0.0271623
1062.1	0.0272844
1062.23	0.0274675
1062.36	0.0278948
1062.5	0.0275285
1062.63	0.0277727
1062.76	0.0278337
1062.9	0.0278337
1063.03	0.0274675
1063.17	0.0277117
1063.3	0.0282
1063.43	0.0275285
1063.57	0.0276506
1063.7	0.0276506
1063.83	0.0275285
1063.97	0.0272233
1064.1	0.0267961
1064.23	0.0276506
1064.37	0.0271013
1064.5	0.026735
1064.64	0.0282
1064.77	0.0275896
1064.9	0.0278337
1065.04	0.0270402
1065.17	0.0274675
1065.3	0.0268571
1065.44	0.0280168
1065.57	0.0271623
1065.71	0.028322
1065.84	0.0277727
1065.97	0.0279558
1066.11	0.0272844
1066.24	0.0275285
1066.37	0.0275285
1066.51	0.0275285
1066.64	0.0274065
1066.78	0.0274675
1066.91	0.0272844
1067.04	0.0278337
1067.18	0.0267961
1067.31	0.0271013
1067.44	0.0282
1067.58	0.0275896
1067.71	0.026674
1067.85	0.0280168
1067.98	0.0272233
1068.11	0.0281389
1068.25	0.0277727
1068.38	0.0281389
1068.51	0.0272233
1068.65	0.0279558
1068.78	0.0277117
1068.92	0.0275896
1069.05	0.0274065
1069.18	0.0272233
1069.32	0.0280779
1069.45	0.0271013
1069.58	0.0269181
1069.72	0.0272844
1069.85	0.0271623
1069.98	0.0269792
1070.12	0.0288104
1070.25	0.028261
1070.39	0.0269181
1070.52	0.0278337
1070.65	0.0284441
1070.79	0.0268571
1070.92	0.0281389
1071.05	0.0270402
1071.19	0.0268571
1071.32	0.0275285
1071.46	0.0280168
1071.59	0.0276506
1071.72	0.0273454
1071.86	0.0278948
1071.99	0.026613
1072.12	0.0274065
1072.26	0.0272233
1072.39	0.0272233
1072.53	0.0280168
1072.66	0.0273454
1072.79	0.026735
1072.93	0.0280168
1073.06	0.0282
1073.19	0.0282
1073.33	0.0272233
1073.46	0.0278948
1073.59	0.0264909
1073.73	0.0281389
1073.86	0.0275896
1074	0.0274675
1074.13	0.0271623
1074.26	0.0285662
1074.4	0.0278948
1074.53	0.0269792
1074.66	0.0278948
1074.8	0.0269792
1074.93	0.0271013
1075.07	0.0277117
1075.2	0.0269792
1075.33	0.028261
1075.47	0.0277117
1075.6	0.0278337
1075.73	0.0269181
1075.87	0.0281389
1076	0.0273454
1076.14	0.0278948
1076.27	0.0272233
1076.4	0.0278337
1076.54	0.0270402
1076.67	0.0269792
1076.8	0.0264298
1076.94	0.0272844
1077.07	0.0274675
1077.2	0.0272844
1077.34	0.0279558
1077.47	0.0265519
1077.61	0.0279558
1077.74	0.0275285
1077.87	0.0272233
1078.01	0.0274065
1078.14	0.0278948
1078.27	0.0283831
1078.41	0.0275896
1078.54	0.0275285
1078.68	0.0269181
1078.81	0.0277727
1078.94	0.0279558
1079.08	0.0272844
1079.21	0.0271623
1079.34	0.0272844
1079.48	0.0278337
1079.61	0.0280779
1079.74	0.0271623
1079.88	0.0280779
1080.01	0.0279558
1080.15	0.026735
1080.28	0.0278337
1080.41	0.0278948
1080.55	0.0272233
1080.68	0.0273454
1080.81	0.0280779
1080.95	0.0272233
1081.08	0.0277727
1081.22	0.0269792
1081.35	0.0285662
1081.48	0.0278948
1081.62	0.0276506
1081.75	0.026613
1081.88	0.0273454
1082.02	0.0277727
1082.15	0.0282
1082.28	0.0274675
1082.42	0.0278337
1082.55	0.0275285
1082.69	0.0273454
1082.82	0.0276506
1082.95	0.0272233
1083.09	0.0277727
1083.22	0.0271013
1083.35	0.0267961
1083.49	0.0277727
1083.62	0.0278948
1083.75	0.0271013
1083.89	0.0275896
1084.02	0.0280779
1084.16	0.0274675
1084.29	0.0273454
1084.42	0.0271013
1084.56	0.0277117
1084.69	0.0271013
1084.82	0.0277727
1084.96	0.0265519
1085.09	0.028261
1085.23	0.0273454
1085.36	0.0273454
1085.49	0.0277727
1085.63	0.0271623
1085.76	0.0272844
1085.89	0.0277727
1086.03	0.0273454
1086.16	0.0276506
1086.29	0.0284441
1086.43	0.0278948
1086.56	0.0274065
1086.7	0.0272844
1086.83	0.0277727
1086.96	0.0274065
1087.1	0.0268571
1087.23	0.0270402
1087.36	0.0280779
1087.5	0.0270402
1087.63	0.0281389
1087.76	0.0277117
1087.9	0.0274675
1088.03	0.0272844
1088.17	0.0280779
1088.3	0.0274675
1088.43	0.0275285
1088.57	0.0276506
1088.7	0.026735
1088.83	0.0274675
1088.97	0.0270402
1089.1	0.0269792
1089.24	0.0278337
1089.37	0.0268571
1089.5	0.0268571
1089.64	0.0269181
1089.77	0.028322
1089.9	0.0277727
1090.04	0.0276506
1090.17	0.0276506
1090.3	0.0277727
1090.44	0.0270402
1090.57	0.026613
1090.71	0.0282
1090.84	0.0275285
1090.97	0.0277727
1091.11	0.0276506
1091.24	0.0277727
1091.37	0.0275896
1091.51	0.0282
1091.64	0.0278948
1091.77	0.028261
1091.91	0.0271013
1092.04	0.0270402
1092.18	0.0282
1092.31	0.0278948
1092.44	0.0275896
1092.58	0.0277117
1092.71	0.0275896
1092.84	0.0281389
1092.98	0.0279558
1093.11	0.0274675
1093.24	0.0264909
1093.38	0.0275285
1093.51	0.0278948
1093.65	0.0279558
1093.78	0.0279558
1093.91	0.0277727
1094.05	0.0278948
1094.18	0.0282
1094.31	0.0272844
1094.45	0.0272233
1094.58	0.0271623
1094.71	0.0268571
1094.85	0.0278337
1094.98	0.0274675
1095.12	0.0275896
1095.25	0.0270402
1095.38	0.0280168
1095.52	0.0269181
1095.65	0.0271623
1095.78	0.0270402
1095.92	0.026735
1096.05	0.0272844
1096.18	0.0275896
1096.32	0.0284441
1096.45	0.0274675
1096.59	0.0273454
1096.72	0.0274675
1096.85	0.0272233
1096.99	0.0274675
1097.12	0.0279558
1097.25	0.0271013
1097.39	0.0271623
1097.52	0.0286272
1097.65	0.0277727
1097.79	0.0275896
1097.92	0.0280779
1098.06	0.0279558
1098.19	0.0270402
1098.32	0.0282
1098.46	0.026735
1098.59	0.0272233
1098.72	0.0277117
1098.86	0.0277727
1098.99	0.0276506
1099.12	0.0270402
1099.26	0.0272844
1099.39	0.0275285
1099.53	0.0284441
1099.66	0.0272844
1099.79	0.0269792
1099.93	0.0279558
1100.06	0.0269792
1100.19	0.0279558
1100.33	0.0272233
1100.46	0.0274675
1100.59	0.0275285
1100.73	0.0278337
1100.86	0.028261
1100.99	0.0279558
1101.13	0.0271623
1101.26	0.0271623
1101.4	0.0281389
1101.53	0.0282
1101.66	0.026735
1101.8	0.0275285
1101.93	0.0275285
1102.06	0.0280779
1102.2	0.0274675
1102.33	0.0278337
1102.46	0.0276506
1102.6	0.0277117
1102.73	0.0271623
1102.87	0.0278337
1103	0.0267961
1103.13	0.0280779
1103.27	0.0275285
1103.4	0.0275896
1103.53	0.0264909
1103.67	0.0267961
1103.8	0.0277727
1103.93	0.0274065
1104.07	0.0278948
1104.2	0.0278948
1104.34	0.0278337
1104.47	0.0268571
1104.6	0.026674
1104.74	0.0275285
1104.87	0.0273454
1105	0.026735
1105.14	0.0273454
1105.27	0.0280168
1105.4	0.0277727
1105.54	0.0283831
1105.67	0.0277727
1105.8	0.0275285
1105.94	0.0269792
1106.07	0.0275285
1106.21	0.0270402
1106.34	0.0273454
1106.47	0.0271623
1106.61	0.0272844
1106.74	0.0274675
1106.87	0.0280168
1107.01	0.0273454
1107.14	0.0277727
1107.27	0.0269792
1107.41	0.0269181
1107.54	0.0264298

