Source: Spectrum Viewer

Chart: Pulse Spectrum

Series: 
Wavelength (nm)	S (a.u.)
617.638	0.0271623
617.773	0.026735
617.908	0.0273454
618.043	0.0275896
618.178	0.0279558
618.313	0.0274065
618.448	0.0271013
618.583	0.0273454
618.718	0.0270402
618.853	0.0279558
618.988	0.0277727
619.123	0.0271623
619.258	0.0284441
619.394	0.0271013
619.529	0.0276506
619.664	0.0271013
619.799	0.0275896
619.934	0.0274675
620.069	0.0274675
620.204	0.0271623
620.339	0.0277117
620.474	0.0271623
620.609	0.0279558
620.744	0.0280779
620.879	0.0272844
621.014	0.0278337
621.149	0.028322
621.284	0.0271013
621.419	0.0272844
621.554	0.0271623
621.689	0.0270402
621.825	0.0275285
621.96	0.026674
622.095	0.026613
622.23	0.026735
622.365	0.0274065
622.5	0.0274065
622.635	0.0273454
622.77	0.0276506
622.905	0.0265519
623.04	0.0270402
623.175	0.0269792
623.31	0.0278948
623.445	0.0270402
623.58	0.0271013
623.715	0.0274675
623.85	0.0272844
623.985	0.0273454
624.12	0.0274675
624.255	0.0274065
624.39	0.0269792
624.525	0.0274065
624.661	0.028322
624.796	0.026674
624.931	0.0274675
625.066	0.0273454
625.201	0.026735
625.336	0.0281389
625.471	0.0264909
625.606	0.0277117
625.741	0.0273454
625.876	0.0269792
626.011	0.0272844
626.146	0.0278948
626.281	0.0277117
626.416	0.0272233
626.551	0.0275285
626.686	0.0274675
626.821	0.0278948
626.956	0.0276506
627.091	0.0281389
627.226	0.0274065
627.361	0.0275896
627.496	0.0270402
627.631	0.0275285
627.766	0.0269792
627.901	0.0274065
628.036	0.0285052
628.171	0.0272844
628.307	0.0272233
628.442	0.0270402
628.577	0.0269792
628.712	0.0272233
628.847	0.0275285
628.982	0.0283831
629.117	0.0272844
629.252	0.0269792
629.387	0.0277117
629.522	0.0282
629.657	0.0277727
629.792	0.0280779
629.927	0.0274065
630.062	0.0274675
630.197	0.026674
630.332	0.0271013
630.467	0.0277117
630.602	0.0272844
630.737	0.0275896
630.872	0.0280779
631.007	0.0279558
631.142	0.0267961
631.277	0.0273454
631.412	0.0279558
631.547	0.0275896
631.682	0.0272233
631.817	0.0271013
631.952	0.0280168
632.087	0.0274065
632.222	0.0270402
632.357	0.0274065
632.492	0.0269181
632.627	0.026674
632.762	0.0275285
632.897	0.028322
633.032	0.0277117
633.167	0.0275285
633.302	0.0274065
633.437	0.0280779
633.572	0.0267961
633.707	0.0267961
633.842	0.026674
633.978	0.0273454
634.113	0.0277117
634.248	0.026735
634.383	0.0275896
634.518	0.0272233
634.653	0.0275896
634.788	0.0282
634.923	0.0269792
635.058	0.026674
635.193	0.0284441
635.328	0.0275285
635.463	0.0276506
635.598	0.0274065
635.733	0.0271623
635.868	0.0271623
636.003	0.0270402
636.138	0.0274675
636.273	0.0271013
636.408	0.0273454
636.543	0.0280168
636.678	0.0280779
636.813	0.0274065
636.948	0.0272844
637.083	0.0274675
637.218	0.0271623
637.353	0.0272233
637.488	0.0275896
637.623	0.0275285
637.758	0.0269792
637.893	0.0264909
638.028	0.0275285
638.163	0.0270402
638.298	0.0273454
638.433	0.0271013
638.568	0.0271013
638.703	0.0276506
638.838	0.0274065
638.973	0.0278948
639.108	0.0273454
639.243	0.0280168
639.378	0.0265519
639.513	0.0275896
639.648	0.0272844
639.783	0.0274065
639.918	0.0273454
640.053	0.0269181
640.188	0.0275896
640.323	0.0278948
640.458	0.0271623
640.593	0.0274065
640.728	0.0277117
640.863	0.0272233
640.998	0.0280779
641.133	0.0274675
641.268	0.0269792
641.403	0.0264909
641.538	0.0274675
641.673	0.0277117
641.808	0.0281389
641.943	0.0272844
642.078	0.026674
642.213	0.0277117
642.348	0.0272233
642.483	0.0265519
642.618	0.026613
642.753	0.0274065
642.888	0.0258805
643.023	0.0267961
643.158	0.0272233
643.293	0.0274675
643.428	0.026674
643.563	0.0280168
643.698	0.026613
643.833	0.028322
643.968	0.0278948
644.103	0.0275285
644.237	0.0274065
644.372	0.0274065
644.507	0.0264298
644.642	0.0276506
644.777	0.0274675
644.912	0.0280779
645.047	0.0275285
645.182	0.0268571
645.317	0.0272233
645.452	0.0280168
645.587	0.0269792
645.722	0.0272233
645.857	0.0277727
645.992	0.0269181
646.127	0.0272844
646.262	0.0268571
646.397	0.0276506
646.532	0.0275285
646.667	0.0275896
646.802	0.0269181
646.937	0.0282
647.072	0.0268571
647.207	0.0274065
647.342	0.0269181
647.477	0.0273454
647.612	0.028261
647.747	0.0270402
647.882	0.0274065
648.017	0.0275285
648.152	0.0274065
648.287	0.0275285
648.422	0.028322
648.557	0.0272233
648.692	0.0275285
648.827	0.0283831
648.962	0.0273454
649.097	0.0277727
649.232	0.0274675
649.367	0.026613
649.502	0.0275896
649.637	0.0277727
649.772	0.026735
649.906	0.0275896
650.041	0.0273454
650.176	0.0275896
650.311	0.0277727
650.446	0.0273454
650.581	0.0268571
650.716	0.0267961
650.851	0.0275896
650.986	0.0275285
651.121	0.026674
651.256	0.0274065
651.391	0.028261
651.526	0.0281389
651.661	0.0269181
651.796	0.0270402
651.931	0.0277727
652.066	0.0263078
652.201	0.0269181
652.336	0.0276506
652.471	0.028322
652.606	0.0278948
652.741	0.0279558
652.876	0.0280168
653.011	0.0271013
653.146	0.0277117
653.281	0.028261
653.415	0.0264909
653.55	0.0272233
653.685	0.0275896
653.82	0.0270402
653.955	0.0269181
654.09	0.0269792
654.225	0.0271623
654.36	0.0272844
654.495	0.0272844
654.63	0.0275285
654.765	0.0271013
654.9	0.0269181
655.035	0.0281389
655.17	0.0280168
655.305	0.0275896
655.44	0.0267961
655.575	0.0274065
655.71	0.0272844
655.845	0.026613
655.98	0.0270402
656.115	0.0267961
656.25	0.0270402
656.384	0.0268571
656.519	0.0270402
656.654	0.0273454
656.789	0.0269792
656.924	0.0274675
657.059	0.0274675
657.194	0.0265519
657.329	0.0275896
657.464	0.0277727
657.599	0.0277727
657.734	0.0273454
657.869	0.0269792
658.004	0.0278337
658.139	0.0274065
658.274	0.0275285
658.409	0.0288714
658.544	0.0271013
658.679	0.0273454
658.813	0.0269792
658.948	0.0273454
659.083	0.0272233
659.218	0.0272844
659.353	0.0272233
659.488	0.0268571
659.623	0.0277727
659.758	0.0280779
659.893	0.0278948
660.028	0.0280779
660.163	0.0271013
660.298	0.0274675
660.433	0.0268571
660.568	0.0274065
660.703	0.0275896
660.838	0.0274065
660.972	0.0272233
661.107	0.0277727
661.242	0.0269792
661.377	0.0275285
661.512	0.0275285
661.647	0.0283831
661.782	0.0269181
661.917	0.0274065
662.052	0.0279558
662.187	0.0271623
662.322	0.0274065
662.457	0.0277727
662.592	0.0269792
662.727	0.0279558
662.862	0.0272844
662.996	0.0276506
663.131	0.0278337
663.266	0.0280168
663.401	0.0277117
663.536	0.0272844
663.671	0.0275285
663.806	0.0267961
663.941	0.0264909
664.076	0.0270402
664.211	0.0275896
664.346	0.0277727
664.481	0.0280779
664.616	0.0287493
664.75	0.0281389
664.885	0.0277117
665.02	0.0281389
665.155	0.0272233
665.29	0.0276506
665.425	0.0277727
665.56	0.0275285
665.695	0.0272844
665.83	0.0284441
665.965	0.0275285
666.1	0.0272233
666.235	0.0274675
666.37	0.0278948
666.504	0.0277117
666.639	0.0274065
666.774	0.0292987
666.909	0.0281389
667.044	0.0275896
667.179	0.0272233
667.314	0.0274065
667.449	0.0272844
667.584	0.0277117
667.719	0.0277117
667.854	0.0277117
667.989	0.0283831
668.123	0.0282
668.258	0.0270402
668.393	0.0271623
668.528	0.0275896
668.663	0.0272233
668.798	0.0269181
668.933	0.0280168
669.068	0.0283831
669.203	0.0280779
669.338	0.0275285
669.473	0.0274065
669.607	0.0279558
669.742	0.0277117
669.877	0.0276506
670.012	0.0275896
670.147	0.0267961
670.282	0.0270402
670.417	0.0270402
670.552	0.0272233
670.687	0.0275896
670.822	0.0275285
670.957	0.0268571
671.091	0.0279558
671.226	0.0280168
671.361	0.0269792
671.496	0.0269792
671.631	0.0273454
671.766	0.0275896
671.901	0.0275285
672.036	0.0276506
672.171	0.0269181
672.306	0.0275896
672.44	0.0283831
672.575	0.0276506
672.71	0.0272844
672.845	0.026735
672.98	0.0275285
673.115	0.0268571
673.25	0.0277117
673.385	0.0272233
673.52	0.0274065
673.655	0.0278337
673.789	0.0267961
673.924	0.028261
674.059	0.0275285
674.194	0.0272233
674.329	0.0277117
674.464	0.0276506
674.599	0.0271623
674.734	0.0278337
674.869	0.0275896
675.003	0.0278948
675.138	0.0274065
675.273	0.0273454
675.408	0.0284441
675.543	0.0270402
675.678	0.0275896
675.813	0.028322
675.948	0.0286272
676.083	0.0263078
676.217	0.028261
676.352	0.0269181
676.487	0.0270402
676.622	0.0276506
676.757	0.0270402
676.892	0.0271623
677.027	0.0268571
677.162	0.0278948
677.297	0.0273454
677.431	0.0271013
677.566	0.0275896
677.701	0.0274675
677.836	0.0269181
677.971	0.0271013
678.106	0.0279558
678.241	0.0280168
678.376	0.0273454
678.511	0.0277727
678.645	0.0276506
678.78	0.0274065
678.915	0.0276506
679.05	0.026674
679.185	0.0274675
679.32	0.028322
679.455	0.0278948
679.59	0.0275896
679.724	0.0269792
679.859	0.0276506
679.994	0.0277117
680.129	0.0276506
680.264	0.0278337
680.399	0.0275285
680.534	0.0278337
680.669	0.0271623
680.803	0.026613
680.938	0.0270402
681.073	0.0277727
681.208	0.0274065
681.343	0.0277117
681.478	0.0273454
681.613	0.026735
681.748	0.0272844
681.882	0.0271013
682.017	0.0274065
682.152	0.0281389
682.287	0.0274065
682.422	0.0275896
682.557	0.0268571
682.692	0.0272844
682.827	0.0278337
682.961	0.0277117
683.096	0.0272233
683.231	0.0274065
683.366	0.0279558
683.501	0.0278337
683.636	0.0272844
683.771	0.0275896
683.906	0.0268571
684.04	0.0275285
684.175	0.0277117
684.31	0.0278337
684.445	0.0277117
684.58	0.0267961
684.715	0.0274675
684.85	0.0271013
684.984	0.0274065
685.119	0.0280779
685.254	0.0272233
685.389	0.0280168
685.524	0.0282
685.659	0.0274065
685.794	0.0283831
685.928	0.0277727
686.063	0.0276506
686.198	0.0277727
686.333	0.0271013
686.468	0.0275285
686.603	0.0273454
686.738	0.0272233
686.872	0.0265519
687.007	0.0271013
687.142	0.0277727
687.277	0.0277727
687.412	0.0274675
687.547	0.0278948
687.682	0.0271013
687.816	0.0273454
687.951	0.0270402
688.086	0.0284441
688.221	0.0275285
688.356	0.0276506
688.491	0.0279558
688.626	0.0276506
688.76	0.0274065
688.895	0.028322
689.03	0.028322
689.165	0.0271013
689.3	0.0274675
689.435	0.0269181
689.57	0.0269792
689.704	0.0273454
689.839	0.0276506
689.974	0.0280168
690.109	0.0279558
690.244	0.0277117
690.379	0.026674
690.513	0.0267961
690.648	0.0277117
690.783	0.0275285
690.918	0.0271623
691.053	0.0276506
691.188	0.0274065
691.323	0.0288714
691.457	0.0280779
691.592	0.0276506
691.727	0.0275896
691.862	0.0277117
691.997	0.0272233
692.132	0.0280779
692.266	0.0275896
692.401	0.0273454
692.536	0.0275896
692.671	0.0277117
692.806	0.0276506
692.941	0.0277117
693.075	0.0277727
693.21	0.0273454
693.345	0.0278948
693.48	0.0265519
693.615	0.0274675
693.75	0.0270402
693.885	0.0269181
694.019	0.0276506
694.154	0.0272233
694.289	0.0278337
694.424	0.0265519
694.559	0.0272844
694.694	0.0272233
694.828	0.0272233
694.963	0.0271013
695.098	0.0278337
695.233	0.0265519
695.368	0.0276506
695.503	0.0275285
695.637	0.0277117
695.772	0.0276506
695.907	0.0273454
696.042	0.0269792
696.177	0.0269181
696.312	0.0263688
696.446	0.0278337
696.581	0.0282
696.716	0.028261
696.851	0.0271623
696.986	0.0271623
697.12	0.0275896
697.255	0.028261
697.39	0.026735
697.525	0.0280168
697.66	0.0273454
697.795	0.026735
697.929	0.0272233
698.064	0.0275896
698.199	0.0274675
698.334	0.0274065
698.469	0.0272844
698.604	0.0278948
698.738	0.0267961
698.873	0.0267961
699.008	0.0272233
699.143	0.0277117
699.278	0.026613
699.412	0.0274065
699.547	0.0278948
699.682	0.0271013
699.817	0.0277117
699.952	0.0274065
700.087	0.0274675
700.221	0.0283831
700.356	0.026674
700.491	0.0273454
700.626	0.0270402
700.761	0.0273454
700.895	0.0273454
701.03	0.0272233
701.165	0.0274065
701.3	0.0278948
701.435	0.0270402
701.57	0.0276506
701.704	0.0275285
701.839	0.0281389
701.974	0.0277117
702.109	0.0272844
702.244	0.0285052
702.378	0.0282
702.513	0.0286883
702.648	0.0271013
702.783	0.0269181
702.918	0.0272233
703.052	0.0278337
703.187	0.0269792
703.322	0.0270402
703.457	0.0271623
703.592	0.0261246
703.727	0.0263688
703.861	0.0275285
703.996	0.0264298
704.131	0.026735
704.266	0.0271623
704.401	0.026735
704.535	0.0271013
704.67	0.0274065
704.805	0.0271013
704.94	0.028322
705.075	0.0281389
705.209	0.0272233
705.344	0.0274065
705.479	0.0281389
705.614	0.0280168
705.749	0.026674
705.883	0.0282
706.018	0.0273454
706.153	0.0274065
706.288	0.0278337
706.423	0.0269792
706.557	0.0277117
706.692	0.0271623
706.827	0.0270402
706.962	0.0275896
707.097	0.0286883
707.231	0.0269792
707.366	0.0277727
707.501	0.0274065
707.636	0.0270402
707.771	0.0275285
707.905	0.0271623
708.04	0.028261
708.175	0.0275285
708.31	0.0269792
708.445	0.026613
708.579	0.0280779
708.714	0.0258805
708.849	0.0268571
708.984	0.0271013
709.118	0.0272233
709.253	0.0277117
709.388	0.0279558
709.523	0.0265519
709.658	0.0281389
709.792	0.0274675
709.927	0.0275285
710.062	0.0269792
710.197	0.028261
710.332	0.0270402
710.466	0.0269792
710.601	0.0265519
710.736	0.0275285
710.871	0.0269792
711.006	0.0278948
711.14	0.0275896
711.275	0.0272844
711.41	0.0268571
711.545	0.0275285
711.679	0.0275896
711.814	0.0280779
711.949	0.0272844
712.084	0.0273454
712.219	0.0280779
712.353	0.0267961
712.488	0.026613
712.623	0.0272233
712.758	0.0277727
712.892	0.0272233
713.027	0.0270402
713.162	0.0274065
713.297	0.026674
713.432	0.0271623
713.566	0.026613
713.701	0.0274675
713.836	0.0275896
713.971	0.0274675
714.105	0.0274675
714.24	0.0277117
714.375	0.0280779
714.51	0.0284441
714.645	0.0272233
714.779	0.0274065
714.914	0.0268571
715.049	0.0278337
715.184	0.026735
715.318	0.028322
715.453	0.0276506
715.588	0.0273454
715.723	0.0277117
715.858	0.0276506
715.992	0.0279558
716.127	0.0274675
716.262	0.0275285
716.397	0.0275285
716.531	0.0278337
716.666	0.0281389
716.801	0.0278948
716.936	0.0267961
717.07	0.0268571
717.205	0.026613
717.34	0.0274065
717.475	0.0272233
717.61	0.0272844
717.744	0.0268571
717.879	0.0271623
718.014	0.028261
718.149	0.0275285
718.283	0.0275285
718.418	0.0273454
718.553	0.0275896
718.688	0.0277727
718.822	0.0268571
718.957	0.0282
719.092	0.0283831
719.227	0.026674
719.361	0.0269181
719.496	0.0269181
719.631	0.0275285
719.766	0.0274675
719.9	0.0272844
720.035	0.0270402
720.17	0.0278337
720.305	0.0277117
720.44	0.0275285
720.574	0.0285662
720.709	0.0278948
720.844	0.0275896
720.979	0.0278948
721.113	0.0272233
721.248	0.0275285
721.383	0.0264298
721.518	0.0273454
721.652	0.0278948
721.787	0.0275285
721.922	0.0272844
722.057	0.0273454
722.191	0.028322
722.326	0.0286272
722.461	0.0275285
722.596	0.0272233
722.73	0.0278337
722.865	0.0278337
723	0.0269181
723.135	0.028261
723.269	0.0281389
723.404	0.0276506
723.539	0.0277117
723.674	0.0267961
723.808	0.0273454
723.943	0.0278948
724.078	0.0269792
724.213	0.0272233
724.347	0.0272844
724.482	0.0264909
724.617	0.0274065
724.752	0.0277117
724.886	0.0270402
725.021	0.0272233
725.156	0.0265519
725.291	0.028322
725.425	0.0277117
725.56	0.026735
725.695	0.0277117
725.829	0.026735
725.964	0.0272233
726.099	0.028322
726.234	0.0274675
726.368	0.0274675
726.503	0.0274675
726.638	0.0271013
726.773	0.0280779
726.907	0.0282
727.042	0.0282
727.177	0.0272844
727.312	0.0269792
727.446	0.0276506
727.581	0.0274065
727.716	0.026613
727.851	0.026613
727.985	0.0282
728.12	0.0275285
728.255	0.0271623
728.389	0.0271623
728.524	0.0273454
728.659	0.0274675
728.794	0.0283831
728.928	0.0280168
729.063	0.0273454
729.198	0.0277727
729.333	0.0269792
729.467	0.028322
729.602	0.0267961
729.737	0.0270402
729.872	0.0272233
730.006	0.0282
730.141	0.0276506
730.276	0.0277727
730.41	0.0275896
730.545	0.0278948
730.68	0.0271623
730.815	0.0271623
730.949	0.0280779
731.084	0.0274675
731.219	0.0277117
731.354	0.0280168
731.488	0.0277117
731.623	0.0275896
731.758	0.0286883
731.892	0.0278337
732.027	0.0273454
732.162	0.0271013
732.297	0.0270402
732.431	0.0277727
732.566	0.0276506
732.701	0.0273454
732.835	0.0278337
732.97	0.0269181
733.105	0.0272233
733.24	0.0272233
733.374	0.0263078
733.509	0.0271623
733.644	0.0275285
733.779	0.0277117
733.913	0.0267961
734.048	0.0269181
734.183	0.0273454
734.317	0.028322
734.452	0.0272233
734.587	0.0275896
734.722	0.0274675
734.856	0.0262467
734.991	0.0272233
735.126	0.026613
735.26	0.0275896
735.395	0.0277117
735.53	0.0274675
735.665	0.0264909
735.799	0.0272233
735.934	0.026674
736.069	0.0281389
736.203	0.0270402
736.338	0.0275285
736.473	0.0274065
736.607	0.0268571
736.742	0.0268571
736.877	0.0280168
737.012	0.0277117
737.146	0.0274675
737.281	0.0272233
737.416	0.0270402
737.55	0.0271013
737.685	0.0277117
737.82	0.0265519
737.955	0.0269181
738.089	0.026674
738.224	0.0275285
738.359	0.0275285
738.493	0.0275896
738.628	0.0272233
738.763	0.0278948
738.897	0.0272233
739.032	0.0261857
739.167	0.0275896
739.302	0.0271013
739.436	0.0273454
739.571	0.0280168
739.706	0.0270402
739.84	0.0277117
739.975	0.0263078
740.11	0.0280779
740.244	0.0275285
740.379	0.0274675
740.514	0.028261
740.649	0.0278337
740.783	0.0272233
740.918	0.0273454
741.053	0.0267961
741.187	0.0285662
741.322	0.0278337
741.457	0.0273454
741.591	0.0269792
741.726	0.0278948
741.861	0.0273454
741.996	0.028261
742.13	0.0274675
742.265	0.0269181
742.4	0.0268571
742.534	0.0282
742.669	0.0269181
742.804	0.0269792
742.938	0.0271013
743.073	0.0274675
743.208	0.0269181
743.342	0.0282
743.477	0.0272844
743.612	0.0282
743.747	0.0263078
743.881	0.0275285
744.016	0.0270402
744.151	0.0277117
744.285	0.0277117
744.42	0.0272233
744.555	0.0270402
744.689	0.026735
744.824	0.0274675
744.959	0.0274675
745.093	0.0269792
745.228	0.0280168
745.363	0.0269181
745.497	0.0279558
745.632	0.0274065
745.767	0.0274065
745.901	0.0274065
746.036	0.0273454
746.171	0.0278948
746.305	0.0269181
746.44	0.0275896
746.575	0.026735
746.71	0.026735
746.844	0.0272844
746.979	0.0262467
747.114	0.0263688
747.248	0.0277727
747.383	0.0279558
747.518	0.0268571
747.652	0.0280168
747.787	0.0274065
747.922	0.0272844
748.056	0.0274675
748.191	0.0278337
748.326	0.0278948
748.46	0.0273454
748.595	0.0272844
748.73	0.0277117
748.864	0.0277117
748.999	0.0270402
749.134	0.0275285
749.268	0.0280779
749.403	0.0269792
749.538	0.026674
749.672	0.0271013
749.807	0.0268571
749.942	0.0269181
750.076	0.0276506
750.211	0.0276506
750.346	0.0271623
750.48	0.0283831
750.615	0.0278337
750.75	0.0278337
750.884	0.0271013
751.019	0.0274675
751.154	0.0272233
751.288	0.0275896
751.423	0.0276506
751.558	0.0275896
751.692	0.0273454
751.827	0.0280168
751.962	0.0274675
752.096	0.0269181
752.231	0.0272233
752.366	0.0271013
752.5	0.0277727
752.635	0.0277117
752.77	0.026735
752.904	0.0278948
753.039	0.0268571
753.174	0.0271623
753.308	0.0269181
753.443	0.0270402
753.578	0.0270402
753.712	0.0274065
753.847	0.0277727
753.982	0.0275285
754.116	0.0275285
754.251	0.0273454
754.386	0.0275896
754.52	0.028261
754.655	0.0275285
754.79	0.0277727
754.924	0.026674
755.059	0.026735
755.194	0.0273454
755.328	0.0285052
755.463	0.0286883
755.597	0.0274065
755.732	0.0272233
755.867	0.0280168
756.001	0.0279558
756.136	0.0277117
756.271	0.0273454
756.405	0.0267961
756.54	0.0274675
756.675	0.0277727
756.809	0.0271623
756.944	0.0277117
757.079	0.0275285
757.213	0.0272844
757.348	0.0277117
757.483	0.0276506
757.617	0.0280168
757.752	0.0274065
757.887	0.0277117
758.021	0.0270402
758.156	0.0274065
758.29	0.0271623
758.425	0.0274065
758.56	0.0273454
758.694	0.0271623
758.829	0.0271623
758.964	0.0264909
759.098	0.0265519
759.233	0.0274675
759.368	0.0285662
759.502	0.0278337
759.637	0.0271623
759.772	0.0278948
759.906	0.0270402
760.041	0.0274675
760.175	0.0277727
760.31	0.0282
760.445	0.0271013
760.579	0.0278337
760.714	0.0272233
760.849	0.0275896
760.983	0.0277117
761.118	0.0279558
761.253	0.0272844
761.387	0.0277117
761.522	0.0267961
761.656	0.0279558
761.791	0.0277117
761.926	0.0277727
762.06	0.0271623
762.195	0.0272844
762.33	0.0280168
762.464	0.0269792
762.599	0.0276506
762.733	0.0278337
762.868	0.0272233
763.003	0.0271623
763.137	0.0276506
763.272	0.0275285
763.407	0.0275285
763.541	0.0271013
763.676	0.0277117
763.811	0.0275285
763.945	0.0278948
764.08	0.0278948
764.214	0.0278948
764.349	0.0276506
764.484	0.0279558
764.618	0.0277727
764.753	0.0285052
764.888	0.0270402
765.022	0.0269181
765.157	0.0272233
765.291	0.0278948
765.426	0.0267961
765.561	0.0265519
765.695	0.0275896
765.83	0.0264909
765.965	0.0275285
766.099	0.0275896
766.234	0.0278337
766.368	0.0280779
766.503	0.0268571
766.638	0.026735
766.772	0.0270402
766.907	0.0273454
767.041	0.0280168
767.176	0.0269181
767.311	0.0277727
767.445	0.0274675
767.58	0.0277117
767.715	0.0274065
767.849	0.0273454
767.984	0.0278337
768.118	0.0282
768.253	0.028261
768.388	0.0269181
768.522	0.0269792
768.657	0.0274675
768.791	0.0272233
768.926	0.0269792
769.061	0.0278337
769.195	0.0275896
769.33	0.0273454
769.465	0.0276506
769.599	0.0282
769.734	0.0275285
769.868	0.0277117
770.003	0.0272844
770.138	0.0272844
770.272	0.0277117
770.407	0.0269792
770.541	0.0282
770.676	0.0264909
770.811	0.0277727
770.945	0.0276506
771.08	0.0273454
771.214	0.0271623
771.349	0.0274065
771.484	0.0274675
771.618	0.0272233
771.753	0.0277117
771.887	0.0278337
772.022	0.0273454
772.157	0.0278948
772.291	0.026674
772.426	0.0275285
772.56	0.0276506
772.695	0.0272844
772.83	0.0264298
772.964	0.0275285
773.099	0.0274675
773.233	0.0271623
773.368	0.0278948
773.503	0.0271623
773.637	0.0279558
773.772	0.0280779
773.906	0.0277727
774.041	0.0282
774.176	0.028261
774.31	0.0272233
774.445	0.0272844
774.579	0.0275896
774.714	0.0275285
774.849	0.0281389
774.983	0.0271013
775.118	0.0260636
775.252	0.0276506
775.387	0.0280779
775.522	0.028261
775.656	0.0263688
775.791	0.0274065
775.925	0.0274065
776.06	0.0277727
776.195	0.0282
776.329	0.0278948
776.464	0.028261
776.598	0.0278948
776.733	0.0276506
776.868	0.0280779
777.002	0.0270402
777.137	0.0274675
777.271	0.0271623
777.406	0.0271013
777.54	0.0274675
777.675	0.028261
777.81	0.0280779
777.944	0.0280168
778.079	0.0274675
778.213	0.0273454
778.348	0.028322
778.483	0.0277727
778.617	0.0272844
778.752	0.026674
778.886	0.0274675
779.021	0.0265519
779.155	0.0281389
779.29	0.0272844
779.425	0.0273454
779.559	0.0268571
779.694	0.0280779
779.828	0.0272844
779.963	0.0267961
780.098	0.028322
780.232	0.0277727
780.367	0.0278337
780.501	0.0272844
780.636	0.0265519
780.77	0.0271013
780.905	0.0269792
781.04	0.0275285
781.174	0.028322
781.309	0.0286883
781.443	0.0275285
781.578	0.0269792
781.712	0.0275896
781.847	0.0270402
781.982	0.0275896
782.116	0.0279558
782.251	0.0274675
782.385	0.0272233
782.52	0.0276506
782.654	0.0288714
782.789	0.0272844
782.924	0.0285052
783.058	0.0275285
783.193	0.0275285
783.327	0.0279558
783.462	0.0278948
783.596	0.026674
783.731	0.0282
783.866	0.0268571
784	0.0274675
784.135	0.0271623
784.269	0.0275896
784.404	0.0276506
784.538	0.0275285
784.673	0.0271623
784.808	0.0275896
784.942	0.0264909
785.077	0.0277117
785.211	0.0273454
785.346	0.0274675
785.48	0.0270402
785.615	0.0274065
785.75	0.0271013
785.884	0.0268571
786.019	0.0270402
786.153	0.0277117
786.288	0.0272233
786.422	0.0276506
786.557	0.0267961
786.691	0.0277727
786.826	0.0271013
786.961	0.0278337
787.095	0.0277117
787.23	0.0271013
787.364	0.0277117
787.499	0.0274675
787.633	0.0273454
787.768	0.0278948
787.902	0.0271623
788.037	0.0267961
788.172	0.0271623
788.306	0.0275285
788.441	0.0275285
788.575	0.0277117
788.71	0.0269792
788.844	0.0278337
788.979	0.0278337
789.113	0.0277117
789.248	0.0272844
789.383	0.0277117
789.517	0.0264909
789.652	0.0274065
789.786	0.0278337
789.921	0.028261
790.055	0.0273454
790.19	0.026613
790.324	0.0272844
790.459	0.028261
790.594	0.0279558
790.728	0.0275896
790.863	0.0282
790.997	0.0275896
791.132	0.0274065
791.266	0.0275896
791.401	0.0273454
791.535	0.0279558
791.67	0.0284441
791.804	0.0284441
791.939	0.028261
792.074	0.0281389
792.208	0.0274065
792.343	0.0272844
792.477	0.026735
792.612	0.0273454
792.746	0.0280168
792.881	0.0279558
793.015	0.0278337
793.15	0.0277727
793.284	0.0277117
793.419	0.0280168
793.553	0.0276506
793.688	0.0283831
793.823	0.0277727
793.957	0.0277117
794.092	0.0276506
794.226	0.0272233
794.361	0.026613
794.495	0.0267961
794.63	0.0278337
794.764	0.0274675
794.899	0.0280168
795.033	0.0274675
795.168	0.0279558
795.302	0.0283831
795.437	0.0271623
795.572	0.0280779
795.706	0.0274675
795.841	0.0274065
795.975	0.0285662
796.11	0.0278948
796.244	0.0282
796.379	0.0277117
796.513	0.0275285
796.648	0.0281389
796.782	0.0275896
796.917	0.028261
797.051	0.0275896
797.186	0.0280779
797.32	0.0270402
797.455	0.0285052
797.589	0.0279558
797.724	0.0278948
797.859	0.0282
797.993	0.0286272
798.128	0.0278337
798.262	0.0272233
798.397	0.028261
798.531	0.0276506
798.666	0.0288104
798.8	0.0280168
798.935	0.0273454
799.069	0.0289324
799.204	0.0268571
799.338	0.0280779
799.473	0.0283831
799.607	0.028322
799.742	0.0278948
799.876	0.028261
800.011	0.0278337
800.145	0.0283831
800.28	0.0277727
800.414	0.0278337
800.549	0.0283831
800.683	0.0282
800.818	0.0284441
800.953	0.0292376
801.087	0.0281389
801.222	0.0286883
801.356	0.0286883
801.491	0.0288714
801.625	0.0280779
801.76	0.0286883
801.894	0.0288104
802.029	0.0281389
802.163	0.0294207
802.298	0.0299701
802.432	0.0278948
802.567	0.0285662
802.701	0.029787
802.836	0.0292987
802.97	0.028322
803.105	0.0281389
803.239	0.0292376
803.374	0.0296039
803.508	0.0296039
803.643	0.0291766
803.777	0.0300311
803.912	0.0308857
804.046	0.029848
804.181	0.0297259
804.315	0.0302142
804.45	0.0301532
804.584	0.0312519
804.719	0.0304584
804.853	0.0303363
804.988	0.0306415
805.122	0.031435
805.257	0.0305805
805.391	0.0313129
805.526	0.0314961
805.66	0.0311298
805.795	0.0324727
805.929	0.0327168
806.064	0.0324727
806.198	0.0332662
806.333	0.0333272
806.467	0.0338766
806.602	0.0350974
806.736	0.0349753
806.871	0.0347922
807.005	0.0362571
807.14	0.0371727
807.274	0.0382103
807.409	0.0378441
807.543	0.0402246
807.678	0.0397363
807.812	0.0409571
807.947	0.0420558
808.081	0.045474
808.216	0.0474272
808.35	0.0487701
808.485	0.064396
808.619	0.351645
808.754	0.990661
808.888	1
809.023	1
809.157	1
809.292	1
809.426	1
809.561	1
809.695	1
809.83	1
809.964	1
810.099	1
810.233	1
810.368	1
810.502	1
810.637	1
810.771	1
810.906	0.998047
811.04	0.997619
811.175	0.993286
811.309	0.992492
811.444	0.986388
811.578	0.982421
811.713	0.978209
811.847	0.964414
811.982	0.960142
812.116	0.720869
812.251	0.903986
812.385	0.785754
812.519	0.2585
812.654	0.0677532
812.788	0.0524324
812.923	0.0478545
813.057	0.0456571
813.192	0.0428493
813.326	0.0406519
813.461	0.0397363
813.595	0.0386376
813.73	0.0368675
813.864	0.0369896
813.999	0.0361961
814.133	0.0360129
814.268	0.0347311
814.402	0.0344259
814.537	0.0335103
814.671	0.0348532
814.806	0.0328389
814.94	0.0329
815.075	0.0315571
815.209	0.0332662
815.344	0.0313129
815.478	0.0320454
815.612	0.0308246
815.747	0.0316792
815.881	0.0299701
816.016	0.0308246
816.15	0.0311298
816.285	0.0303363
816.419	0.0304584
816.554	0.0303363
816.688	0.0297259
816.823	0.029787
816.957	0.0286883
817.092	0.029848
817.226	0.0289324
817.361	0.0289324
817.495	0.0291766
817.63	0.0299701
817.764	0.0283831
817.898	0.0300311
818.033	0.0291766
818.167	0.0294818
818.302	0.0296649
818.436	0.0296649
818.571	0.0285662
818.705	0.0289324
818.84	0.0290545
818.974	0.0292987
819.109	0.0282
819.243	0.028322
819.378	0.028322
819.512	0.0283831
819.646	0.028261
819.781	0.0284441
819.915	0.0284441
820.05	0.0289935
820.184	0.0295428
820.319	0.028261
820.453	0.0282
820.588	0.0289935
820.722	0.0284441
820.857	0.0288104
820.991	0.0289324
821.126	0.0282
821.26	0.0279558
821.394	0.0286883
821.529	0.0278948
821.663	0.0282
821.798	0.0277117
821.932	0.0275285
822.067	0.0281389
822.201	0.0274065
822.336	0.0275285
822.47	0.0285052
822.605	0.0275285
822.739	0.0272233
822.873	0.0281389
823.008	0.0273454
823.142	0.0278337
823.277	0.028322
823.411	0.0272844
823.546	0.0278337
823.68	0.0275896
823.815	0.0276506
823.949	0.0280168
824.083	0.0277117
824.218	0.0269181
824.352	0.0282
824.487	0.0271013
824.621	0.0277117
824.756	0.0284441
824.89	0.0280168
825.025	0.0275285
825.159	0.0271623
825.293	0.0276506
825.428	0.0273454
825.562	0.0275285
825.697	0.0280779
825.831	0.0278337
825.966	0.0278337
826.1	0.0271623
826.235	0.0278337
826.369	0.0281389
826.503	0.0280168
826.638	0.026674
826.772	0.0280168
826.907	0.0279558
827.041	0.0279558
827.176	0.0278948
827.31	0.0290545
827.445	0.026674
827.579	0.028261
827.713	0.0271623
827.848	0.0279558
827.982	0.0274675
828.117	0.0272233
828.251	0.0272233
828.386	0.0283831
828.52	0.0267961
828.654	0.0275285
828.789	0.0274065
828.923	0.0277117
829.058	0.0272233
829.192	0.0272844
829.327	0.0274675
829.461	0.0278337
829.596	0.0278337
829.73	0.0276506
829.864	0.0282
829.999	0.0272844
830.133	0.0277117
830.268	0.0268571
830.402	0.0270402
830.537	0.0275896
830.671	0.0279558
830.805	0.0274675
830.94	0.0279558
831.074	0.0286272
831.209	0.0270402
831.343	0.0277117
831.478	0.0272233
831.612	0.0272844
831.746	0.0275896
831.881	0.0277117
832.015	0.0275285
832.15	0.0274065
832.284	0.0279558
832.418	0.0274065
832.553	0.0278337
832.687	0.0275896
832.822	0.0279558
832.956	0.0282
833.091	0.0269792
833.225	0.0277117
833.359	0.0272233
833.494	0.0274675
833.628	0.0281389
833.763	0.0274065
833.897	0.0275285
834.032	0.0277117
834.166	0.0279558
834.3	0.0275896
834.435	0.0275285
834.569	0.0272844
834.704	0.026735
834.838	0.0272233
834.972	0.0274675
835.107	0.0274675
835.241	0.0281389
835.376	0.0275285
835.51	0.0269181
835.645	0.0278337
835.779	0.0271623
835.913	0.0272233
836.048	0.0271623
836.182	0.0275285
836.317	0.0275896
836.451	0.0267961
836.585	0.0272844
836.72	0.0278948
836.854	0.0280779
836.989	0.0271623
837.123	0.0274065
837.257	0.028322
837.392	0.0277117
837.526	0.0279558
837.661	0.0274065
837.795	0.0288104
837.929	0.0278337
838.064	0.0274675
838.198	0.0277727
838.333	0.0280779
838.467	0.0274065
838.602	0.0275896
838.736	0.0271623
838.87	0.0275285
839.005	0.0274065
839.139	0.0279558
839.274	0.0274065
839.408	0.0264298
839.542	0.0273454
839.677	0.0277727
839.811	0.0271623
839.946	0.0274675
840.08	0.0272233
840.214	0.0271623
840.349	0.0280168
840.483	0.0275896
840.618	0.0278337
840.752	0.0275285
840.886	0.0269792
841.021	0.0271623
841.155	0.0279558
841.29	0.028322
841.424	0.0272844
841.558	0.0280168
841.693	0.0275285
841.827	0.0271013
841.961	0.0274675
842.096	0.0272233
842.23	0.0267961
842.365	0.0272844
842.499	0.0267961
842.633	0.0276506
842.768	0.026735
842.902	0.026674
843.037	0.0274065
843.171	0.0272233
843.305	0.0269792
843.44	0.0272844
843.574	0.0272233
843.709	0.0273454
843.843	0.028261
843.977	0.0275896
844.112	0.0270402
844.246	0.0281389
844.381	0.0272844
844.515	0.0274675
844.649	0.0277117
844.784	0.0271013
844.918	0.0274065
845.052	0.0274675
845.187	0.0269181
845.321	0.0275896
845.456	0.026674
845.59	0.0271623
845.724	0.0278948
845.859	0.0275896
845.993	0.0271013
846.128	0.0277727
846.262	0.0277117
846.396	0.0275896
846.531	0.0274675
846.665	0.0273454
846.799	0.0279558
846.934	0.0268571
847.068	0.0271623
847.203	0.0274065
847.337	0.0272844
847.471	0.0273454
847.606	0.0272233
847.74	0.0278337
847.874	0.0269792
848.009	0.0273454
848.143	0.0274065
848.278	0.0264298
848.412	0.0272233
848.546	0.0280168
848.681	0.0275896
848.815	0.0271623
848.949	0.0276506
849.084	0.0278948
849.218	0.0269792
849.353	0.0276506
849.487	0.0265519
849.621	0.0275896
849.756	0.0278337
849.89	0.0282
850.024	0.0277727
850.159	0.0281389
850.293	0.0276506
850.428	0.0280168
850.562	0.0271623
850.696	0.0272233
850.831	0.0274675
850.965	0.0277727
851.099	0.0278337
851.234	0.0271013
851.368	0.0271623
851.502	0.0275896
851.637	0.0279558
851.771	0.0272844
851.906	0.0280779
852.04	0.0274065
852.174	0.026674
852.309	0.0274675
852.443	0.0278337
852.577	0.0272844
852.712	0.0277117
852.846	0.0269792
852.98	0.0278948
853.115	0.0278948
853.249	0.0273454
853.384	0.0272233
853.518	0.0273454
853.652	0.0277117
853.787	0.0269792
853.921	0.0271013
854.055	0.0277117
854.19	0.0282
854.324	0.0271013
854.458	0.0272844
854.593	0.0274675
854.727	0.0279558
854.861	0.0271623
854.996	0.0269181
855.13	0.0276506
855.265	0.0284441
855.399	0.0269792
855.533	0.0274065
855.668	0.026735
855.802	0.0269792
855.936	0.0278337
856.071	0.0278948
856.205	0.0272233
856.339	0.0268571
856.474	0.0271623
856.608	0.0274675
856.742	0.0274065
856.877	0.0281389
857.011	0.0275285
857.145	0.0272233
857.28	0.0271013
857.414	0.0280168
857.549	0.0283831
857.683	0.0277117
857.817	0.0276506
857.952	0.0273454
858.086	0.0274065
858.22	0.0276506
858.355	0.0272844
858.489	0.0278948
858.623	0.0272233
858.758	0.0272233
858.892	0.0270402
859.026	0.0273454
859.161	0.0274065
859.295	0.0276506
859.429	0.0274675
859.564	0.0274065
859.698	0.0275285
859.832	0.0281389
859.967	0.0275896
860.101	0.0270402
860.235	0.0269792
860.37	0.0272844
860.504	0.0274675
860.638	0.0280168
860.773	0.0275896
860.907	0.0273454
861.041	0.028322
861.176	0.0278337
861.31	0.0273454
861.444	0.0280168
861.579	0.0267961
861.713	0.026674
861.847	0.0268571
861.982	0.026735
862.116	0.0274675
862.25	0.026735
862.385	0.0270402
862.519	0.0274065
862.653	0.0272844
862.788	0.0271623
862.922	0.0279558
863.056	0.0282
863.191	0.0274675
863.325	0.0272233
863.459	0.0275896
863.594	0.0277727
863.728	0.0273454
863.862	0.0269181
863.997	0.0274065
864.131	0.0281389
864.265	0.0276506
864.4	0.0276506
864.534	0.0274675
864.668	0.0272233
864.803	0.0272844
864.937	0.0282
865.071	0.0270402
865.206	0.026735
865.34	0.0269792
865.474	0.0274065
865.609	0.0268571
865.743	0.0269792
865.877	0.0272844
866.012	0.0274065
866.146	0.0272233
866.28	0.0278337
866.415	0.0275896
866.549	0.0277117
866.683	0.0276506
866.818	0.0271623
866.952	0.0269792
867.086	0.0275285
867.221	0.0274675
867.355	0.0275285
867.489	0.0269181
867.623	0.0274065
867.758	0.0269181
867.892	0.0270402
868.026	0.0269181
868.161	0.0260636
868.295	0.0272844
868.429	0.0274065
868.564	0.0278948
868.698	0.0277117
868.832	0.0277117
868.967	0.0273454
869.101	0.0277117
869.235	0.0269792
869.37	0.0280168
869.504	0.0276506
869.638	0.0281389
869.773	0.0275896
869.907	0.0273454
870.041	0.0271623
870.175	0.0268571
870.31	0.0277727
870.444	0.0274065
870.578	0.0281389
870.713	0.0271623
870.847	0.0273454
870.981	0.0275896
871.116	0.0272233
871.25	0.0276506
871.384	0.0278948
871.519	0.0273454
871.653	0.0269181
871.787	0.0272233
871.921	0.028322
872.056	0.0275285
872.19	0.026735
872.324	0.0271623
872.459	0.0275285
872.593	0.0276506
872.727	0.0272844
872.862	0.0271623
872.996	0.0278337
873.13	0.0269792
873.264	0.0265519
873.399	0.0275285
873.533	0.0277727
873.667	0.0264909
873.802	0.0275285
873.936	0.0275896
874.07	0.0277727
874.205	0.0273454
874.339	0.0271013
874.473	0.0277727
874.607	0.0274065
874.742	0.0271623
874.876	0.0278948
875.01	0.0274065
875.145	0.0265519
875.279	0.028261
875.413	0.0269792
875.548	0.0268571
875.682	0.0276506
875.816	0.0269181
875.95	0.028261
876.085	0.026674
876.219	0.0280168
876.353	0.0265519
876.488	0.0280168
876.622	0.0278337
876.756	0.0273454
876.89	0.0274675
877.025	0.0279558
877.159	0.0277117
877.293	0.0280779
877.428	0.0280168
877.562	0.026735
877.696	0.0278948
877.83	0.0269792
877.965	0.0278948
878.099	0.0273454
878.233	0.0277727
878.368	0.0275896
878.502	0.0271623
878.636	0.0272233
878.77	0.0270402
878.905	0.0270402
879.039	0.0272233
879.173	0.0272233
879.308	0.0272844
879.442	0.0276506
879.576	0.0275896
879.71	0.0273454
879.845	0.0276506
879.979	0.0273454
880.113	0.0275896
880.248	0.0274065
880.382	0.0269792
880.516	0.0273454
880.65	0.0269792
880.785	0.028261
880.919	0.026674
881.053	0.0275896
881.188	0.028322
881.322	0.0267961
881.456	0.0264909
881.59	0.0267961
881.725	0.0272233
881.859	0.0274675
881.993	0.0280779
882.127	0.0267961
882.262	0.0277117
882.396	0.0272233
882.53	0.0279558
882.665	0.0267961
882.799	0.0275285
882.933	0.0278948
883.067	0.0273454
883.202	0.026674
883.336	0.0267961
883.47	0.0276506
883.604	0.026735
883.739	0.0278337
883.873	0.0272233
884.007	0.0269181
884.142	0.0272844
884.276	0.0271623
884.41	0.0272233
884.544	0.0272233
884.679	0.0281389
884.813	0.0271013
884.947	0.0270402
885.081	0.0271623
885.216	0.0271013
885.35	0.0275285
885.484	0.0277727
885.618	0.0272844
885.753	0.0269181
885.887	0.0273454
886.021	0.0277117
886.155	0.0272844
886.29	0.0271623
886.424	0.0269792
886.558	0.0278948
886.693	0.0277117
886.827	0.0280779
886.961	0.0278948
887.095	0.0267961
887.23	0.0275896
887.364	0.0272844
887.498	0.0279558
887.632	0.0270402
887.767	0.0286272
887.901	0.0269181
888.035	0.0273454
888.169	0.0279558
888.304	0.0270402
888.438	0.0276506
888.572	0.0279558
888.706	0.0270402
888.841	0.0278337
888.975	0.0272844
889.109	0.0273454
889.243	0.0275896
889.378	0.0272844
889.512	0.0269181
889.646	0.0268571
889.78	0.0271013
889.915	0.0271623
890.049	0.0279558
890.183	0.0279558
890.317	0.0275285
890.452	0.0280779
890.586	0.0269792
890.72	0.0272233
890.854	0.0272844
890.989	0.0277117
891.123	0.0271623
891.257	0.0272844
891.391	0.0274675
891.526	0.0277117
891.66	0.0275285
891.794	0.0267961
891.928	0.0270402
892.063	0.028261
892.197	0.0271013
892.331	0.0275285
892.465	0.0263078
892.6	0.0271013
892.734	0.0264298
892.868	0.0274065
893.002	0.0274675
893.137	0.0278948
893.271	0.0272844
893.405	0.0279558
893.539	0.0273454
893.674	0.0280168
893.808	0.0272233
893.942	0.0278337
894.076	0.0280168
894.21	0.028322
894.345	0.0272233
894.479	0.0277727
894.613	0.0272844
894.747	0.0271623
894.882	0.026735
895.016	0.0273454
895.15	0.0263688
895.284	0.0272233
895.419	0.0268571
895.553	0.0275285
895.687	0.0277727
895.821	0.0281389
895.956	0.0271623
896.09	0.026735
896.224	0.0276506
896.358	0.0274675
896.492	0.0273454
896.627	0.0274675
896.761	0.0272844
896.895	0.0274675
897.029	0.0276506
897.164	0.0279558
897.298	0.0272844
897.432	0.0281389
897.566	0.0269181
897.701	0.0277727
897.835	0.0272844
897.969	0.0278948
898.103	0.0280779
898.237	0.0269181
898.372	0.0275896
898.506	0.0279558
898.64	0.0272844
898.774	0.0281389
898.909	0.0288714
899.043	0.0274675
899.177	0.0274675
899.311	0.0270402
899.445	0.0278337
899.58	0.0277727
899.714	0.0278337
899.848	0.0275896
899.982	0.0278948
900.117	0.0278948
900.251	0.0274675
900.385	0.0277117
900.519	0.026735
900.653	0.0273454
900.788	0.0275896
900.922	0.0284441
901.056	0.0272233
901.19	0.0274675
901.325	0.0278337
901.459	0.0275896
901.593	0.0279558
901.727	0.0269792
901.861	0.0274675
901.996	0.0277117
902.13	0.0273454
902.264	0.0275285
902.398	0.0275896
902.532	0.0267961
902.667	0.0278948
902.801	0.0277117
902.935	0.0274065
903.069	0.0269181
903.204	0.0271623
903.338	0.0271013
903.472	0.0275896
903.606	0.0270402
903.74	0.0267961
903.875	0.0271623
904.009	0.0271623
904.143	0.0272233
904.277	0.0273454
904.411	0.0273454
904.546	0.0271623
904.68	0.0272844
904.814	0.0275285
904.948	0.0271013
905.082	0.0275285
905.217	0.0280168
905.351	0.0269792
905.485	0.0272233
905.619	0.0284441
905.753	0.0278337
905.888	0.0274065
906.022	0.0273454
906.156	0.0277117
906.29	0.0269792
906.424	0.0275285
906.559	0.0278948
906.693	0.0277117
906.827	0.0271013
906.961	0.0281389
907.095	0.0264909
907.23	0.026735
907.364	0.0274675
907.498	0.0276506
907.632	0.026735
907.766	0.0277727
907.901	0.0277117
908.035	0.0272233
908.169	0.0272844
908.303	0.0275896
908.437	0.0277117
908.572	0.0275285
908.706	0.0283831
908.84	0.0271013
908.974	0.0273454
909.108	0.0275285
909.243	0.0270402
909.377	0.0268571
909.511	0.0276506
909.645	0.0275896
909.779	0.0274675
909.914	0.0275285
910.048	0.0268571
910.182	0.026674
910.316	0.0268571
910.45	0.0282
910.585	0.0269181
910.719	0.0278337
910.853	0.0270402
910.987	0.0275285
911.121	0.0278337
911.255	0.0272844
911.39	0.0269181
911.524	0.0276506
911.658	0.0276506
911.792	0.0264909
911.926	0.0277727
912.061	0.0274065
912.195	0.0282
912.329	0.0279558
912.463	0.0278337
912.597	0.0270402
912.732	0.0268571
912.866	0.0274065
913	0.0276506
913.134	0.0280168
913.268	0.0274065
913.402	0.0278337
913.537	0.0280779
913.671	0.0272233
913.805	0.0269792
913.939	0.0277117
914.073	0.0274065
914.208	0.0277727
914.342	0.0275285
914.476	0.0272233
914.61	0.0269181
914.744	0.0271623
914.878	0.0265519
915.013	0.0280779
915.147	0.0264909
915.281	0.028261
915.415	0.0278337
915.549	0.0271623
915.683	0.0275896
915.818	0.0275285
915.952	0.0268571
916.086	0.0282
916.22	0.0272844
916.354	0.0270402
916.488	0.0280779
916.623	0.0269792
916.757	0.0272844
916.891	0.0272233
917.025	0.0273454
917.159	0.0270402
917.293	0.0280168
917.428	0.0282
917.562	0.0277117
917.696	0.0274675
917.83	0.0275896
917.964	0.0274065
918.098	0.0282
918.233	0.0275285
918.367	0.0267961
918.501	0.0272233
918.635	0.0275896
918.769	0.0276506
918.903	0.0269792
919.038	0.0272844
919.172	0.0270402
919.306	0.0274675
919.44	0.0272233
919.574	0.0275285
919.708	0.0280779
919.843	0.0269181
919.977	0.0272844
920.111	0.0271623
920.245	0.028322
920.379	0.0273454
920.513	0.0276506
920.648	0.0276506
920.782	0.0284441
920.916	0.0274675
921.05	0.0279558
921.184	0.0280779
921.318	0.0276506
921.453	0.0270402
921.587	0.0278337
921.721	0.0270402
921.855	0.0281389
921.989	0.028322
922.123	0.0272844
922.257	0.0275896
922.392	0.0275896
922.526	0.0274065
922.66	0.0272844
922.794	0.0263078
922.928	0.0276506
923.062	0.026735
923.197	0.0273454
923.331	0.0272844
923.465	0.0286883
923.599	0.0280168
923.733	0.0272233
923.867	0.026613
924.001	0.0278948
924.136	0.026735
924.27	0.0276506
924.404	0.026735
924.538	0.0273454
924.672	0.028261
924.806	0.0272844
924.94	0.0279558
925.075	0.0278948
925.209	0.0278948
925.343	0.0275896
925.477	0.0282
925.611	0.0279558
925.745	0.0280168
925.879	0.0288104
926.014	0.0272844
926.148	0.0272233
926.282	0.0271623
926.416	0.0274065
926.55	0.0274065
926.684	0.0268571
926.818	0.028322
926.953	0.0268571
927.087	0.0274675
927.221	0.0275896
927.355	0.0272844
927.489	0.0278948
927.623	0.026735
927.757	0.028322
927.892	0.0274675
928.026	0.0274065
928.16	0.0272233
928.294	0.0275896
928.428	0.0269792
928.562	0.0281389
928.696	0.0277117
928.831	0.0273454
928.965	0.026735
929.099	0.0276506
929.233	0.0277117
929.367	0.0281389
929.501	0.0267961
929.635	0.0279558
929.769	0.0269181
929.904	0.028261
930.038	0.0280779
930.172	0.0271623
930.306	0.0272233
930.44	0.0275896
930.574	0.0269181
930.708	0.0275896
930.843	0.0285052
930.977	0.0281389
931.111	0.0267961
931.245	0.0275285
931.379	0.0273454
931.513	0.0263078
931.647	0.0278337
931.781	0.0262467
931.916	0.0279558
932.05	0.0277117
932.184	0.0271623
932.318	0.0275896
932.452	0.0276506
932.586	0.0270402
932.72	0.0274065
932.854	0.0277117
932.989	0.0280779
933.123	0.0275285
933.257	0.0274675
933.391	0.0278337
933.525	0.0277727
933.659	0.0273454
933.793	0.0271623
933.927	0.0273454
934.061	0.0281389
934.196	0.0269181
934.33	0.026613
934.464	0.0278337
934.598	0.0280168
934.732	0.0270402
934.866	0.0267961
935	0.0274675
935.134	0.0275896
935.269	0.0272233
935.403	0.0277727
935.537	0.0278948
935.671	0.026735
935.805	0.0270402
935.939	0.0284441
936.073	0.0269181
936.207	0.0273454
936.341	0.0271013
936.476	0.0284441
936.61	0.028322
936.744	0.028261
936.878	0.026613
937.012	0.0275285
937.146	0.0274675
937.28	0.0275285
937.414	0.0271623
937.548	0.0272844
937.683	0.0277727
937.817	0.0265519
937.951	0.0275285
938.085	0.0272233
938.219	0.0286883
938.353	0.0269181
938.487	0.0271623
938.621	0.0275896
938.755	0.0272844
938.889	0.0275285
939.024	0.0269181
939.158	0.0284441
939.292	0.0271623
939.426	0.0269181
939.56	0.0271013
939.694	0.026674
939.828	0.0278337
939.962	0.0275285
940.096	0.0274675
940.231	0.0281389
940.365	0.0276506
940.499	0.0281389
940.633	0.0274675
940.767	0.0274065
940.901	0.0275896
941.035	0.0264909
941.169	0.0271013
941.303	0.0272844
941.437	0.0274675
941.571	0.0274675
941.706	0.026674
941.84	0.0285052
941.974	0.0263078
942.108	0.0280779
942.242	0.0275285
942.376	0.0272844
942.51	0.0274065
942.644	0.0278337
942.778	0.0274675
942.912	0.0270402
943.047	0.0282
943.181	0.0267961
943.315	0.0273454
943.449	0.0281389
943.583	0.0275896
943.717	0.0272233
943.851	0.0271623
943.985	0.0278948
944.119	0.0280168
944.253	0.0276506
944.387	0.0280779
944.522	0.0275896
944.656	0.0278337
944.79	0.0277727
944.924	0.0272844
945.058	0.0275285
945.192	0.0277117
945.326	0.0278337
945.46	0.0269181
945.594	0.0283831
945.728	0.0272233
945.862	0.0278337
945.996	0.0272844
946.131	0.0278948
946.265	0.0274675
946.399	0.0276506
946.533	0.0271623
946.667	0.0269792
946.801	0.0275896
946.935	0.0275896
947.069	0.0278337
947.203	0.0270402
947.337	0.0275285
947.471	0.0273454
947.605	0.0274675
947.739	0.0278337
947.874	0.0269181
948.008	0.0277117
948.142	0.0280168
948.276	0.0270402
948.41	0.0273454
948.544	0.0283831
948.678	0.0270402
948.812	0.0267961
948.946	0.0272233
949.08	0.0272233
949.214	0.0282
949.348	0.0270402
949.482	0.0269792
949.617	0.0277727
949.751	0.0268571
949.885	0.0272233
950.019	0.0272233
950.153	0.0279558
950.287	0.0274675
950.421	0.0280168
950.555	0.0272233
950.689	0.0277117
950.823	0.0272844
950.957	0.0272233
951.091	0.0277727
951.225	0.0272844
951.359	0.0275285
951.493	0.0272844
951.628	0.0272844
951.762	0.0272844
951.896	0.0274065
952.03	0.0275896
952.164	0.0274675
952.298	0.028322
952.432	0.0275896
952.566	0.0272844
952.7	0.0272844
952.834	0.0275896
952.968	0.0273454
953.102	0.0275285
953.236	0.0268571
953.37	0.0264909
953.504	0.0274675
953.639	0.0282
953.773	0.0280779
953.907	0.0274065
954.041	0.0274675
954.175	0.0275285
954.309	0.0274065
954.443	0.0273454
954.577	0.0281389
954.711	0.0272233
954.845	0.0279558
954.979	0.026735
955.113	0.0270402
955.247	0.0272844
955.381	0.0271623
955.515	0.0278337
955.649	0.0269181
955.783	0.0277117
955.917	0.0272233
956.052	0.0275285
956.186	0.0268571
956.32	0.0275896
956.454	0.0277117
956.588	0.0281389
956.722	0.0281389
956.856	0.0270402
956.99	0.0274065
957.124	0.0281389
957.258	0.0278948
957.392	0.0272233
957.526	0.0272233
957.66	0.0275896
957.794	0.0275896
957.928	0.0275896
958.062	0.0276506
958.196	0.0279558
958.33	0.0269181
958.464	0.0277727
958.598	0.0275896
958.733	0.0282
958.867	0.0271013
959.001	0.0275285
959.135	0.0268571
959.269	0.0273454
959.403	0.0275896
959.537	0.0270402
959.671	0.0278948
959.805	0.0273454
959.939	0.0271623
960.073	0.028261
960.207	0.0272233
960.341	0.0263078
960.475	0.0276506
960.609	0.0268571
960.743	0.0277117
960.877	0.0277117
961.011	0.0273454
961.145	0.0280168
961.279	0.0277117
961.413	0.0276506
961.547	0.0277727
961.681	0.0265519
961.815	0.0273454
961.949	0.0269181
962.083	0.0277727
962.218	0.0271013
962.352	0.0272233
962.486	0.0275285
962.62	0.0274675
962.754	0.0280168
962.888	0.0272844
963.022	0.0264909
963.156	0.0272233
963.29	0.0275896
963.424	0.0278948
963.558	0.0279558
963.692	0.0278337
963.826	0.0272844
963.96	0.0280779
964.094	0.028261
964.228	0.0270402
964.362	0.0283831
964.496	0.0267961
964.63	0.0271013
964.764	0.0275285
964.898	0.0268571
965.032	0.0276506
965.166	0.0277117
965.3	0.0270402
965.434	0.028261
965.568	0.0280168
965.702	0.0275896
965.836	0.0269181
965.97	0.028322
966.104	0.0264909
966.238	0.0271623
966.372	0.0277117
966.506	0.0269181
966.64	0.0275896
966.774	0.0273454
966.908	0.0271013
967.043	0.0278337
967.177	0.0275896
967.311	0.0269181
967.445	0.0283831
967.579	0.0274675
967.713	0.0273454
967.847	0.0276506
967.981	0.0268571
968.115	0.0270402
968.249	0.028261
968.383	0.0272233
968.517	0.0275896
968.651	0.0278948
968.785	0.0255753
968.919	0.0272233
969.053	0.0278337
969.187	0.0275896
969.321	0.0271013
969.455	0.0272844
969.589	0.0275285
969.723	0.0274065
969.857	0.0274675
969.991	0.0274675
970.125	0.0277727
970.259	0.0282
970.393	0.0275285
970.527	0.0275896
970.661	0.0273454
970.795	0.0265519
970.929	0.0277117
971.063	0.0272233
971.197	0.0277117
971.331	0.0278337
971.465	0.0270402
971.599	0.0278337
971.733	0.028261
971.867	0.0272844
972.001	0.0274675
972.135	0.0269792
972.269	0.0269792
972.403	0.0274065
972.537	0.0272844
972.671	0.0275285
972.805	0.0271013
972.939	0.0270402
973.073	0.0274065
973.207	0.028261
973.341	0.026613
973.475	0.0271623
973.609	0.0272844
973.743	0.0269792
973.877	0.0272233
974.011	0.026613
974.145	0.0264909
974.279	0.0275896
974.413	0.028261
974.547	0.0272844
974.681	0.0272844
974.815	0.0280168
974.949	0.0269181
975.083	0.026613
975.217	0.0282
975.351	0.0272233
975.485	0.0277117
975.619	0.0280168
975.753	0.0278948
975.887	0.0275896
976.021	0.0273454
976.155	0.0276506
976.289	0.0259415
976.423	0.0278337
976.557	0.0276506
976.691	0.0272233
976.825	0.0273454
976.959	0.0272233
977.093	0.0280779
977.227	0.0271013
977.361	0.0269792
977.495	0.0276506
977.629	0.0275285
977.763	0.0270402
977.897	0.0274675
978.031	0.0280168
978.165	0.0271623
978.299	0.0271013
978.433	0.0272233
978.567	0.0269792
978.701	0.0271013
978.835	0.0269792
978.969	0.0274065
979.103	0.0272233
979.237	0.0274675
979.371	0.0275896
979.505	0.0278948
979.639	0.0277117
979.773	0.0274675
979.907	0.0272233
980.041	0.0274675
980.175	0.0277727
980.308	0.0281389
980.442	0.0277117
980.576	0.0279558
980.71	0.0275285
980.844	0.0275896
980.978	0.0271013
981.112	0.0268571
981.246	0.0268571
981.38	0.0269792
981.514	0.026735
981.648	0.026735
981.782	0.0272233
981.916	0.0269792
982.05	0.0274065
982.184	0.0278948
982.318	0.0271013
982.452	0.0269792
982.586	0.0288104
982.72	0.0275896
982.854	0.0272233
982.988	0.0272844
983.122	0.0272844
983.256	0.0270402
983.39	0.0276506
983.524	0.026735
983.658	0.0270402
983.792	0.0277117
983.926	0.0276506
984.06	0.0278337
984.194	0.0282
984.328	0.0270402
984.462	0.0272233
984.596	0.0274065
984.73	0.0284441
984.864	0.0280779
984.998	0.0271013
985.132	0.0272233
985.265	0.0271623
985.399	0.0280168
985.533	0.026674
985.667	0.0272844
985.801	0.0270402
985.935	0.0272844
986.069	0.0270402
986.203	0.0278337
986.337	0.0272233
986.471	0.0272233
986.605	0.0275896
986.739	0.0269181
986.873	0.0274065
987.007	0.0274675
987.141	0.0273454
987.275	0.0267961
987.409	0.0273454
987.543	0.0271623
987.677	0.0275896
987.811	0.0275896
987.945	0.0278337
988.079	0.0273454
988.213	0.0272233
988.347	0.0276506
988.481	0.0283831
988.614	0.0271013
988.748	0.0278948
988.882	0.0273454
989.016	0.0271013
989.15	0.0276506
989.284	0.0273454
989.418	0.0269181
989.552	0.0265519
989.686	0.0277117
989.82	0.0274065
989.954	0.028322
990.088	0.0276506
990.222	0.0275285
990.356	0.0274675
990.49	0.0274065
990.624	0.0278948
990.758	0.0277727
990.892	0.0269181
991.026	0.0277117
991.16	0.0281389
991.294	0.0275285
991.427	0.0277117
991.561	0.0271623
991.695	0.0267961
991.829	0.0274675
991.963	0.0275285
992.097	0.0272844
992.231	0.0269792
992.365	0.0271623
992.499	0.0267961
992.633	0.0273454
992.767	0.0274065
992.901	0.0279558
993.035	0.0276506
993.169	0.0272844
993.303	0.0269792
993.437	0.0280779
993.571	0.0282
993.704	0.0275285
993.838	0.0277727
993.972	0.0275896
994.106	0.0271623
994.24	0.0271623
994.374	0.0272233
994.508	0.0280168
994.642	0.0280168
994.776	0.0269792
994.91	0.0274675
995.044	0.0274065
995.178	0.0272844
995.312	0.0271013
995.446	0.0274675
995.58	0.0267961
995.714	0.0270402
995.847	0.0274065
995.981	0.0273454
996.115	0.0275896
996.249	0.026735
996.383	0.0274675
996.517	0.0275896
996.651	0.0277727
996.785	0.0275285
996.919	0.0269792
997.053	0.0272844
997.187	0.0277117
997.321	0.026735
997.455	0.026613
997.589	0.0271623
997.722	0.0272844
997.856	0.0269181
997.99	0.0275896
998.124	0.0271623
998.258	0.0271623
998.392	0.0269181
998.526	0.0274065
998.66	0.0270402
998.794	0.0271623
998.928	0.0275285
999.062	0.0279558
999.196	0.0275285
999.33	0.0271623
999.464	0.0277727
999.597	0.0274675
999.731	0.0272844
999.865	0.0277727
999.999	0.0270402
1000.13	0.0270402
1000.27	0.0264298
1000.4	0.0272844
1000.53	0.026674
1000.67	0.0279558
1000.8	0.0283831
1000.94	0.0277117
1001.07	0.0274675
1001.2	0.0270402
1001.34	0.0277727
1001.47	0.0275285
1001.61	0.0268571
1001.74	0.0275285
1001.87	0.028261
1002.01	0.0277727
1002.14	0.0282
1002.28	0.0274675
1002.41	0.026735
1002.54	0.0270402
1002.68	0.0278948
1002.81	0.0283831
1002.95	0.0271013
1003.08	0.026735
1003.21	0.0280168
1003.35	0.026674
1003.48	0.0274675
1003.61	0.0275285
1003.75	0.0269792
1003.88	0.0277727
1004.02	0.0279558
1004.15	0.0277727
1004.28	0.0271623
1004.42	0.026735
1004.55	0.0275285
1004.69	0.0275896
1004.82	0.0274065
1004.95	0.0275896
1005.09	0.0275285
1005.22	0.0272844
1005.36	0.0272844
1005.49	0.0271623
1005.62	0.0275285
1005.76	0.0270402
1005.89	0.0272233
1006.03	0.028261
1006.16	0.0269181
1006.29	0.0279558
1006.43	0.0278948
1006.56	0.0274675
1006.69	0.0275896
1006.83	0.0278948
1006.96	0.0272844
1007.1	0.0273454
1007.23	0.0280779
1007.36	0.0283831
1007.5	0.0272233
1007.63	0.0278948
1007.77	0.0269792
1007.9	0.0278337
1008.03	0.026735
1008.17	0.0278948
1008.3	0.0277727
1008.44	0.0269181
1008.57	0.0279558
1008.7	0.0278948
1008.84	0.0281389
1008.97	0.0271013
1009.1	0.0280779
1009.24	0.0273454
1009.37	0.0269792
1009.51	0.0272844
1009.64	0.0272233
1009.77	0.0272844
1009.91	0.0275896
1010.04	0.0272844
1010.18	0.0272844
1010.31	0.0269792
1010.44	0.0271013
1010.58	0.0278337
1010.71	0.0286883
1010.85	0.0269181
1010.98	0.0279558
1011.11	0.0275285
1011.25	0.0272844
1011.38	0.0277117
1011.51	0.0274675
1011.65	0.026674
1011.78	0.0277727
1011.92	0.026674
1012.05	0.0272844
1012.18	0.0274065
1012.32	0.0277117
1012.45	0.0272233
1012.59	0.0268571
1012.72	0.0269181
1012.85	0.0277117
1012.99	0.0271623
1013.12	0.0277727
1013.26	0.0269792
1013.39	0.0274065
1013.52	0.0274065
1013.66	0.028322
1013.79	0.0270402
1013.92	0.0273454
1014.06	0.0270402
1014.19	0.0276506
1014.33	0.0274065
1014.46	0.0276506
1014.59	0.0271013
1014.73	0.0279558
1014.86	0.0271623
1015	0.026735
1015.13	0.0280779
1015.26	0.0277117
1015.4	0.0267961
1015.53	0.0273454
1015.67	0.0271623
1015.8	0.0278948
1015.93	0.0273454
1016.07	0.0274065
1016.2	0.0268571
1016.33	0.0269181
1016.47	0.0275285
1016.6	0.0272233
1016.74	0.0269792
1016.87	0.0275285
1017	0.0268571
1017.14	0.0268571
1017.27	0.0275285
1017.41	0.028261
1017.54	0.0281389
1017.67	0.0278337
1017.81	0.0268571
1017.94	0.0271623
1018.07	0.028322
1018.21	0.0272233
1018.34	0.0280779
1018.48	0.0271013
1018.61	0.0275896
1018.74	0.0274065
1018.88	0.0271013
1019.01	0.0278337
1019.15	0.0270402
1019.28	0.0278948
1019.41	0.0271623
1019.55	0.0279558
1019.68	0.0274675
1019.82	0.0277727
1019.95	0.0285052
1020.08	0.0271623
1020.22	0.026674
1020.35	0.0271623
1020.48	0.0277727
1020.62	0.0278948
1020.75	0.0277117
1020.89	0.0272844
1021.02	0.0271013
1021.15	0.0269792
1021.29	0.0279558
1021.42	0.0277727
1021.56	0.0278337
1021.69	0.0285662
1021.82	0.0272844
1021.96	0.026735
1022.09	0.0268571
1022.22	0.0275285
1022.36	0.026735
1022.49	0.0271013
1022.63	0.0278948
1022.76	0.0274675
1022.89	0.0278337
1023.03	0.0261857
1023.16	0.0277727
1023.3	0.0273454
1023.43	0.0277727
1023.56	0.0277727
1023.7	0.0267961
1023.83	0.0274065
1023.96	0.0274065
1024.1	0.0268571
1024.23	0.0272844
1024.37	0.0261857
1024.5	0.0280168
1024.63	0.0277117
1024.77	0.0276506
1024.9	0.0272233
1025.04	0.0269792
1025.17	0.0275896
1025.3	0.0272233
1025.44	0.026735
1025.57	0.0271623
1025.7	0.0279558
1025.84	0.0269181
1025.97	0.0277117
1026.11	0.0275896
1026.24	0.0275285
1026.37	0.0273454
1026.51	0.0273454
1026.64	0.0275896
1026.78	0.0279558
1026.91	0.0273454
1027.04	0.0269792
1027.18	0.0278948
1027.31	0.0275285
1027.44	0.026613
1027.58	0.0276506
1027.71	0.0280168
1027.85	0.0270402
1027.98	0.0272233
1028.11	0.0275896
1028.25	0.0281389
1028.38	0.0274065
1028.52	0.0264909
1028.65	0.0269181
1028.78	0.0267961
1028.92	0.0272844
1029.05	0.0284441
1029.18	0.0279558
1029.32	0.0275285
1029.45	0.0273454
1029.59	0.0276506
1029.72	0.0278948
1029.85	0.0272233
1029.99	0.0275285
1030.12	0.0279558
1030.26	0.0273454
1030.39	0.0267961
1030.52	0.0272844
1030.66	0.0280168
1030.79	0.0274065
1030.92	0.0275896
1031.06	0.0264298
1031.19	0.0272233
1031.33	0.0275285
1031.46	0.0272844
1031.59	0.0269792
1031.73	0.0277117
1031.86	0.0274675
1031.99	0.0271623
1032.13	0.0280779
1032.26	0.0273454
1032.4	0.0269181
1032.53	0.0269792
1032.66	0.0268571
1032.8	0.0277117
1032.93	0.0270402
1033.07	0.0269792
1033.2	0.0272844
1033.33	0.0279558
1033.47	0.0274675
1033.6	0.0271013
1033.73	0.0275896
1033.87	0.0275896
1034	0.0275285
1034.14	0.0263078
1034.27	0.026613
1034.4	0.0276506
1034.54	0.0275896
1034.67	0.0278948
1034.81	0.0282
1034.94	0.0275285
1035.07	0.0274675
1035.21	0.0274065
1035.34	0.0274065
1035.47	0.0280168
1035.61	0.0276506
1035.74	0.0289324
1035.88	0.0269181
1036.01	0.0278337
1036.14	0.0280779
1036.28	0.0278337
1036.41	0.0275896
1036.54	0.0275285
1036.68	0.0274675
1036.81	0.028322
1036.95	0.0280168
1037.08	0.0282
1037.21	0.0272233
1037.35	0.0274675
1037.48	0.0272844
1037.62	0.0270402
1037.75	0.0271013
1037.88	0.0271623
1038.02	0.0272233
1038.15	0.0268571
1038.28	0.0274675
1038.42	0.0271013
1038.55	0.0272233
1038.69	0.0275285
1038.82	0.0275285
1038.95	0.026613
1039.09	0.0272844
1039.22	0.0279558
1039.35	0.0274675
1039.49	0.0275285
1039.62	0.0272233
1039.76	0.0278337
1039.89	0.0271623
1040.02	0.0269181
1040.16	0.028261
1040.29	0.0272844
1040.43	0.0269181
1040.56	0.028261
1040.69	0.0273454
1040.83	0.0274675
1040.96	0.0269792
1041.09	0.0278337
1041.23	0.0268571
1041.36	0.0272844
1041.5	0.0275896
1041.63	0.0276506
1041.76	0.026674
1041.9	0.0273454
1042.03	0.0284441
1042.16	0.0271623
1042.3	0.0275896
1042.43	0.0269181
1042.57	0.0275285
1042.7	0.028261
1042.83	0.0271013
1042.97	0.0275285
1043.1	0.0268571
1043.23	0.0264909
1043.37	0.0271013
1043.5	0.0278948
1043.64	0.026674
1043.77	0.0268571
1043.9	0.0277117
1044.04	0.0275896
1044.17	0.0268571
1044.31	0.0269792
1044.44	0.0275285
1044.57	0.0270402
1044.71	0.0277117
1044.84	0.028261
1044.97	0.0277117
1045.11	0.0277727
1045.24	0.0270402
1045.38	0.0265519
1045.51	0.0271013
1045.64	0.0275896
1045.78	0.0278337
1045.91	0.0275285
1046.04	0.0275285
1046.18	0.0269792
1046.31	0.0278337
1046.45	0.0274065
1046.58	0.0274065
1046.71	0.0273454
1046.85	0.0280168
1046.98	0.0277117
1047.11	0.0276506
1047.25	0.0271013
1047.38	0.0277117
1047.52	0.0284441
1047.65	0.0272233
1047.78	0.0274065
1047.92	0.0270402
1048.05	0.0278948
1048.18	0.028261
1048.32	0.026735
1048.45	0.0271623
1048.59	0.0277117
1048.72	0.028261
1048.85	0.0275896
1048.99	0.0274065
1049.12	0.0269792
1049.25	0.0279558
1049.39	0.0278948
1049.52	0.0282
1049.66	0.0267961
1049.79	0.0265519
1049.92	0.0275896
1050.06	0.0270402
1050.19	0.0273454
1050.33	0.0275896
1050.46	0.0276506
1050.59	0.0275896
1050.73	0.0278948
1050.86	0.0276506
1050.99	0.0274065
1051.13	0.0271013
1051.26	0.0281389
1051.4	0.0272233
1051.53	0.0270402
1051.66	0.0278337
1051.8	0.0272844
1051.93	0.0272844
1052.06	0.0269792
1052.2	0.0271013
1052.33	0.0271623
1052.47	0.0271013
1052.6	0.0286272
1052.73	0.0278948
1052.87	0.0275896
1053	0.0269181
1053.13	0.0277117
1053.27	0.0277117
1053.4	0.0275285
1053.54	0.0274675
1053.67	0.0281389
1053.8	0.0272844
1053.94	0.0277117
1054.07	0.0270402
1054.2	0.0281389
1054.34	0.0267961
1054.47	0.0272233
1054.61	0.0274675
1054.74	0.0279558
1054.87	0.0274675
1055.01	0.0273454
1055.14	0.0274675
1055.27	0.0278337
1055.41	0.0274675
1055.54	0.0277727
1055.68	0.026613
1055.81	0.0277727
1055.94	0.0270402
1056.08	0.0275896
1056.21	0.0275285
1056.34	0.0275285
1056.48	0.026674
1056.61	0.0279558
1056.75	0.0275896
1056.88	0.0272233
1057.01	0.026735
1057.15	0.026674
1057.28	0.0275285
1057.41	0.0281389
1057.55	0.0274065
1057.68	0.0280168
1057.82	0.026735
1057.95	0.0280779
1058.08	0.0274675
1058.22	0.0271013
1058.35	0.0269181
1058.48	0.0272844
1058.62	0.0274065
1058.75	0.0276506
1058.89	0.0274675
1059.02	0.0274065
1059.15	0.028322
1059.29	0.0275285
1059.42	0.0267961
1059.55	0.0275285
1059.69	0.0272844
1059.82	0.028261
1059.96	0.0269792
1060.09	0.0285662
1060.22	0.0276506
1060.36	0.0271013
1060.49	0.0273454
1060.62	0.0269792
1060.76	0.0277727
1060.89	0.0281389
1061.03	0.0275285
1061.16	0.028322
1061.29	0.0268571
1061.43	0.0270402
1061.56	0.026735
1061.69	0.0277727
1061.83	0.0275285
1061.96	0.0277117
1062.1	0.0271623
1062.23	0.0275285
1062.36	0.0276506
1062.5	0.0271013
1062.63	0.0269792
1062.76	0.0282
1062.9	0.026613
1063.03	0.0271623
1063.17	0.0274675
1063.3	0.0277727
1063.43	0.0265519
1063.57	0.0274675
1063.7	0.0272844
1063.83	0.0275285
1063.97	0.0279558
1064.1	0.0274065
1064.23	0.0271623
1064.37	0.0275896
1064.5	0.0274065
1064.64	0.0272844
1064.77	0.0277117
1064.9	0.0274675
1065.04	0.0267961
1065.17	0.0284441
1065.3	0.0278948
1065.44	0.0272233
1065.57	0.0275896
1065.71	0.0280168
1065.84	0.0275285
1065.97	0.0278337
1066.11	0.0277117
1066.24	0.0264298
1066.37	0.0280168
1066.51	0.028261
1066.64	0.0269792
1066.78	0.0272233
1066.91	0.0271623
1067.04	0.0272233
1067.18	0.0272844
1067.31	0.0277117
1067.44	0.0271013
1067.58	0.0265519
1067.71	0.0272233
1067.85	0.0275285
1067.98	0.0268571
1068.11	0.0272844
1068.25	0.0277727
1068.38	0.0277117
1068.51	0.0284441
1068.65	0.0278948
1068.78	0.0271013
1068.92	0.0275285
1069.05	0.0275285
1069.18	0.0273454
1069.32	0.0277117
1069.45	0.0272233
1069.58	0.0265519
1069.72	0.0280168
1069.85	0.0278337
1069.98	0.0271623
1070.12	0.0272233
1070.25	0.0273454
1070.39	0.0279558
1070.52	0.0272233
1070.65	0.0273454
1070.79	0.0271013
1070.92	0.0279558
1071.05	0.0278337
1071.19	0.0278948
1071.32	0.0275896
1071.46	0.0271013
1071.59	0.0278337
1071.72	0.0270402
1071.86	0.0276506
1071.99	0.0277727
1072.12	0.0272844
1072.26	0.0272844
1072.39	0.0283831
1072.53	0.0277727
1072.66	0.0277727
1072.79	0.0269792
1072.93	0.0285662
1073.06	0.0273454
1073.19	0.0274065
1073.33	0.026674
1073.46	0.026735
1073.59	0.0271623
1073.73	0.0274675
1073.86	0.0273454
1074	0.0280168
1074.13	0.028322
1074.26	0.0278337
1074.4	0.0282
1074.53	0.0272233
1074.66	0.0281389
1074.8	0.0275896
1074.93	0.0272233
1075.07	0.0273454
1075.2	0.0274065
1075.33	0.0274675
1075.47	0.0274065
1075.6	0.0264298
1075.73	0.0275896
1075.87	0.0281389
1076	0.0272233
1076.14	0.0270402
1076.27	0.0277117
1076.4	0.0275896
1076.54	0.0271623
1076.67	0.0281389
1076.8	0.0275285
1076.94	0.0275896
1077.07	0.0268571
1077.2	0.0274065
1077.34	0.0276506
1077.47	0.0275896
1077.61	0.0274675
1077.74	0.0274675
1077.87	0.0276506
1078.01	0.0278948
1078.14	0.0272844
1078.27	0.0280168
1078.41	0.0276506
1078.54	0.0276506
1078.68	0.0264909
1078.81	0.0270402
1078.94	0.0275285
1079.08	0.0281389
1079.21	0.0277117
1079.34	0.0278337
1079.48	0.0268571
1079.61	0.0280779
1079.74	0.0279558
1079.88	0.0272233
1080.01	0.0281389
1080.15	0.0277727
1080.28	0.0287493
1080.41	0.0271623
1080.55	0.0270402
1080.68	0.0271013
1080.81	0.0275285
1080.95	0.0272844
1081.08	0.026735
1081.22	0.0278948
1081.35	0.0269792
1081.48	0.0269792
1081.62	0.0279558
1081.75	0.0275285
1081.88	0.0277117
1082.02	0.0280168
1082.15	0.0265519
1082.28	0.0280779
1082.42	0.0271623
1082.55	0.0277117
1082.69	0.0280168
1082.82	0.0269181
1082.95	0.0270402
1083.09	0.0283831
1083.22	0.0274675
1083.35	0.0288714
1083.49	0.0271623
1083.62	0.0268571
1083.75	0.0273454
1083.89	0.0281389
1084.02	0.0272233
1084.16	0.0274675
1084.29	0.0275896
1084.42	0.0278337
1084.56	0.026674
1084.69	0.0276506
1084.82	0.0264298
1084.96	0.0273454
1085.09	0.0271623
1085.23	0.0269181
1085.36	0.0272844
1085.49	0.0272233
1085.63	0.0277117
1085.76	0.0271013
1085.89	0.0275285
1086.03	0.0270402
1086.16	0.0274675
1086.29	0.0272233
1086.43	0.0271013
1086.56	0.0267961
1086.7	0.0278948
1086.83	0.0271623
1086.96	0.0276506
1087.1	0.0263688
1087.23	0.0271623
1087.36	0.0277727
1087.5	0.026674
1087.63	0.028322
1087.76	0.0280779
1087.9	0.0267961
1088.03	0.0277117
1088.17	0.0286272
1088.3	0.0275285
1088.43	0.026674
1088.57	0.0269181
1088.7	0.0273454
1088.83	0.0275896
1088.97	0.0275896
1089.1	0.0278337
1089.24	0.0271623
1089.37	0.0270402
1089.5	0.0280779
1089.64	0.0280168
1089.77	0.0276506
1089.9	0.0279558
1090.04	0.0271623
1090.17	0.0273454
1090.3	0.0272844
1090.44	0.0274675
1090.57	0.0271623
1090.71	0.0271623
1090.84	0.0274675
1090.97	0.0282
1091.11	0.0277727
1091.24	0.026613
1091.37	0.0275285
1091.51	0.0280779
1091.64	0.0273454
1091.77	0.0274065
1091.91	0.0272233
1092.04	0.0279558
1092.18	0.0275285
1092.31	0.026735
1092.44	0.0269792
1092.58	0.026674
1092.71	0.0277727
1092.84	0.0271623
1092.98	0.0272233
1093.11	0.0281389
1093.24	0.0276506
1093.38	0.0272844
1093.51	0.0270402
1093.65	0.0268571
1093.78	0.0272844
1093.91	0.0267961
1094.05	0.0279558
1094.18	0.0273454
1094.31	0.0278948
1094.45	0.0277727
1094.58	0.0274065
1094.71	0.0274675
1094.85	0.0269181
1094.98	0.0278948
1095.12	0.0269181
1095.25	0.0275896
1095.38	0.0271623
1095.52	0.0279558
1095.65	0.0282
1095.78	0.0278337
1095.92	0.0278337
1096.05	0.0270402
1096.18	0.0285662
1096.32	0.0279558
1096.45	0.0277117
1096.59	0.0281389
1096.72	0.0272844
1096.85	0.0277117
1096.99	0.0275896
1097.12	0.0269792
1097.25	0.0275896
1097.39	0.0274065
1097.52	0.0279558
1097.65	0.0279558
1097.79	0.0273454
1097.92	0.0283831
1098.06	0.0279558
1098.19	0.0275285
1098.32	0.0268571
1098.46	0.0272844
1098.59	0.0278337
1098.72	0.0280779
1098.86	0.0271623
1098.99	0.0275285
1099.12	0.0273454
1099.26	0.0271623
1099.39	0.0271013
1099.53	0.0282
1099.66	0.0274675
1099.79	0.0275896
1099.93	0.0272844
1100.06	0.0273454
1100.19	0.0278337
1100.33	0.0272844
1100.46	0.0273454
1100.59	0.0276506
1100.73	0.0274065
1100.86	0.0268571
1100.99	0.0275896
1101.13	0.0280168
1101.26	0.0274065
1101.4	0.0272233
1101.53	0.0275285
1101.66	0.0282
1101.8	0.0268571
1101.93	0.0269181
1102.06	0.0269792
1102.2	0.0271623
1102.33	0.0274675
1102.46	0.0276506
1102.6	0.0272844
1102.73	0.0272233
1102.87	0.0279558
1103	0.0267961
1103.13	0.026674
1103.27	0.0280779
1103.4	0.0272233
1103.53	0.0277117
1103.67	0.026735
1103.8	0.0277727
1103.93	0.0275285
1104.07	0.0282
1104.2	0.0272233
1104.34	0.0277117
1104.47	0.0274675
1104.6	0.0263078
1104.74	0.0272844
1104.87	0.026674
1105	0.0280168
1105.14	0.0278337
1105.27	0.0271623
1105.4	0.0274675
1105.54	0.0264298
1105.67	0.0272844
1105.8	0.0276506
1105.94	0.0269792
1106.07	0.0278948
1106.21	0.0260636
1106.34	0.0277117
1106.47	0.0271013
1106.61	0.0269792
1106.74	0.0272844
1106.87	0.0274675
1107.01	0.026735
1107.14	0.0278948
1107.27	0.0278948
1107.41	0.0268571
1107.54	0.0272844

