Source: Spectrum Viewer

Chart: Pulse Spectrum

Series: 
Wavelength (nm)	S (a.u.)
617.638	0.0282286
617.773	0.0278555
617.908	0.0282286
618.043	0.0284151
618.178	0.0275446
618.313	0.0282907
618.448	0.0278555
618.583	0.0279799
618.718	0.0279177
618.853	0.0281042
618.988	0.0286016
619.123	0.0279177
619.258	0.0282907
619.394	0.0291612
619.529	0.0279799
619.664	0.0287882
619.799	0.0275446
619.934	0.0277311
620.069	0.028042
620.204	0.0284151
620.339	0.0284773
620.474	0.0281664
620.609	0.0281664
620.744	0.0284773
620.879	0.0281042
621.014	0.0282907
621.149	0.0284151
621.284	0.0281042
621.419	0.027669
621.554	0.0281664
621.689	0.0284773
621.825	0.0291612
621.96	0.0293478
622.095	0.0277311
622.23	0.0284151
622.365	0.0279177
622.5	0.0276068
622.635	0.0285395
622.77	0.0284151
622.905	0.0279799
623.04	0.0285395
623.175	0.0281664
623.31	0.0277311
623.445	0.0277933
623.58	0.0286016
623.715	0.0285395
623.85	0.028726
623.985	0.0279799
624.12	0.0285395
624.255	0.0287882
624.39	0.028042
624.525	0.0278555
624.661	0.0277933
624.796	0.0279799
624.931	0.0282907
625.066	0.0286638
625.201	0.0279177
625.336	0.0281042
625.471	0.0279799
625.606	0.0284773
625.741	0.0287882
625.876	0.028042
626.011	0.0275446
626.146	0.0279799
626.281	0.0288503
626.416	0.0284151
626.551	0.0283529
626.686	0.027669
626.821	0.0285395
626.956	0.0274824
627.091	0.0291612
627.226	0.0285395
627.361	0.0277933
627.496	0.0282286
627.631	0.0281042
627.766	0.029099
627.901	0.0289747
628.036	0.0287882
628.171	0.0284151
628.307	0.0281664
628.442	0.0281664
628.577	0.0278555
628.712	0.0284151
628.847	0.0274203
628.982	0.0288503
629.117	0.0283529
629.252	0.0287882
629.387	0.0284151
629.522	0.0293478
629.657	0.0277933
629.792	0.0284773
629.927	0.0282286
630.062	0.0279799
630.197	0.0286016
630.332	0.0284151
630.467	0.0285395
630.602	0.0282907
630.737	0.0279799
630.872	0.0278555
631.007	0.028726
631.142	0.0284151
631.277	0.0277933
631.412	0.0281664
631.547	0.0285395
631.682	0.0286016
631.817	0.0286016
631.952	0.0288503
632.087	0.0281042
632.222	0.0282286
632.357	0.0281664
632.492	0.0290369
632.627	0.0281042
632.762	0.029099
632.897	0.0284773
633.032	0.028726
633.167	0.0278555
633.302	0.0287882
633.437	0.0278555
633.572	0.0275446
633.707	0.0272337
633.842	0.0279799
633.978	0.0282907
634.113	0.0279177
634.248	0.0281042
634.383	0.0281664
634.518	0.0283529
634.653	0.0286016
634.788	0.0277311
634.923	0.0275446
635.058	0.0286016
635.193	0.0272959
635.328	0.0282907
635.463	0.028042
635.598	0.0291612
635.733	0.0282286
635.868	0.0282286
636.003	0.0277933
636.138	0.0297208
636.273	0.0281664
636.408	0.0283529
636.543	0.0289125
636.678	0.0284773
636.813	0.0294099
636.948	0.0284151
637.083	0.028726
637.218	0.0278555
637.353	0.0277933
637.488	0.0277311
637.623	0.0281664
637.758	0.0277311
637.893	0.0281042
638.028	0.028726
638.163	0.0282286
638.298	0.0282907
638.433	0.0282286
638.568	0.0276068
638.703	0.0273581
638.838	0.0284773
638.973	0.0279799
639.108	0.028042
639.243	0.0278555
639.378	0.0279177
639.513	0.0277933
639.648	0.0275446
639.783	0.028042
639.918	0.0271715
640.053	0.0282907
640.188	0.0284151
640.323	0.0279799
640.458	0.0282907
640.593	0.0282907
640.728	0.0282286
640.863	0.0282286
640.998	0.0276068
641.133	0.0289747
641.268	0.0271094
641.403	0.0279177
641.538	0.0285395
641.673	0.0284773
641.808	0.0285395
641.943	0.0278555
642.078	0.0287882
642.213	0.0283529
642.348	0.0281664
642.483	0.0275446
642.618	0.027669
642.753	0.0282286
642.888	0.0282286
643.023	0.0289125
643.158	0.0271715
643.293	0.0281664
643.428	0.0286016
643.563	0.0284151
643.698	0.0286638
643.833	0.0286638
643.968	0.0281664
644.103	0.0271715
644.237	0.0272959
644.372	0.028042
644.507	0.0289747
644.642	0.0279799
644.777	0.0281042
644.912	0.0282286
645.047	0.0285395
645.182	0.0273581
645.317	0.0283529
645.452	0.027669
645.587	0.0273581
645.722	0.0287882
645.857	0.0285395
645.992	0.028726
646.127	0.0279177
646.262	0.028726
646.397	0.0284151
646.532	0.0289125
646.667	0.0288503
646.802	0.027669
646.937	0.0283529
647.072	0.0282907
647.207	0.028042
647.342	0.0277311
647.477	0.0276068
647.612	0.0282286
647.747	0.0285395
647.882	0.0284773
648.017	0.028042
648.152	0.0276068
648.287	0.0279177
648.422	0.0278555
648.557	0.0285395
648.692	0.0277311
648.827	0.028042
648.962	0.0287882
649.097	0.0284151
649.232	0.0284773
649.367	0.0277311
649.502	0.0273581
649.637	0.028726
649.772	0.028726
649.906	0.027669
650.041	0.0284773
650.176	0.0281664
650.311	0.0284773
650.446	0.0285395
650.581	0.0284151
650.716	0.0286638
650.851	0.0292856
650.986	0.0275446
651.121	0.0282907
651.256	0.0281664
651.391	0.0281042
651.526	0.0292856
651.661	0.0274824
651.796	0.0274824
651.931	0.0285395
652.066	0.0281042
652.201	0.0277933
652.336	0.0278555
652.471	0.0279177
652.606	0.0281664
652.741	0.0284773
652.876	0.0282907
653.011	0.0279799
653.146	0.028042
653.281	0.0287882
653.415	0.0274203
653.55	0.0286016
653.685	0.0281664
653.82	0.0287882
653.955	0.0278555
654.09	0.028042
654.225	0.0275446
654.36	0.0283529
654.495	0.0274203
654.63	0.0272337
654.765	0.0287882
654.9	0.0287882
655.035	0.028042
655.17	0.0278555
655.305	0.028042
655.44	0.0278555
655.575	0.0288503
655.71	0.0277933
655.845	0.0284151
655.98	0.0272337
656.115	0.0274824
656.25	0.0284773
656.384	0.0288503
656.519	0.0290369
656.654	0.0292234
656.789	0.0279177
656.924	0.0275446
657.059	0.0281664
657.194	0.0286016
657.329	0.0277933
657.464	0.0283529
657.599	0.0283529
657.734	0.0281664
657.869	0.0288503
658.004	0.028726
658.139	0.0277933
658.274	0.0281664
658.409	0.0285395
658.544	0.0282907
658.679	0.0284773
658.813	0.0274203
658.948	0.0289747
659.083	0.0277933
659.218	0.028726
659.353	0.0281664
659.488	0.0273581
659.623	0.0285395
659.758	0.0281664
659.893	0.0285395
660.028	0.0279177
660.163	0.0279177
660.298	0.0283529
660.433	0.0279177
660.568	0.0284151
660.703	0.027669
660.838	0.0284773
660.972	0.0282907
661.107	0.0289747
661.242	0.0274824
661.377	0.0287882
661.512	0.028726
661.647	0.0272959
661.782	0.0282907
661.917	0.0284773
662.052	0.0276068
662.187	0.0283529
662.322	0.0277311
662.457	0.0279177
662.592	0.0279799
662.727	0.0289125
662.862	0.0272337
662.996	0.0275446
663.131	0.0285395
663.266	0.028042
663.401	0.0284773
663.536	0.0284151
663.671	0.0279799
663.806	0.0281664
663.941	0.0274824
664.076	0.0281664
664.211	0.0279177
664.346	0.0288503
664.481	0.0287882
664.616	0.0284151
664.75	0.0284151
664.885	0.0279799
665.02	0.0283529
665.155	0.0277933
665.29	0.028726
665.425	0.028042
665.56	0.0281664
665.695	0.0286638
665.83	0.0284151
665.965	0.0277933
666.1	0.028042
666.235	0.0277311
666.37	0.0286638
666.504	0.0278555
666.639	0.0281042
666.774	0.0278555
666.909	0.0276068
667.044	0.0284151
667.179	0.0286638
667.314	0.0283529
667.449	0.0282286
667.584	0.0284151
667.719	0.0284151
667.854	0.0287882
667.989	0.0279177
668.123	0.0287882
668.258	0.028726
668.393	0.0278555
668.528	0.0285395
668.663	0.0285395
668.798	0.0282286
668.933	0.0279177
669.068	0.0281664
669.203	0.0282286
669.338	0.028042
669.473	0.0286016
669.607	0.0284773
669.742	0.0282286
669.877	0.0281042
670.012	0.0281042
670.147	0.0284773
670.282	0.0274203
670.417	0.0277933
670.552	0.027669
670.687	0.0286016
670.822	0.0278555
670.957	0.0278555
671.091	0.0279799
671.226	0.0270472
671.361	0.0292856
671.496	0.0274203
671.631	0.0277933
671.766	0.029099
671.901	0.0284151
672.036	0.0277933
672.171	0.0275446
672.306	0.0272337
672.44	0.028042
672.575	0.0277311
672.71	0.027669
672.845	0.0284773
672.98	0.0282907
673.115	0.0289125
673.25	0.0274824
673.385	0.028726
673.52	0.0279799
673.655	0.0275446
673.789	0.0286016
673.924	0.0284151
674.059	0.0277311
674.194	0.0285395
674.329	0.0284151
674.464	0.0281664
674.599	0.028042
674.734	0.0282286
674.869	0.0277933
675.003	0.0273581
675.138	0.0279177
675.273	0.0282286
675.408	0.0284773
675.543	0.0291612
675.678	0.0279177
675.813	0.0287882
675.948	0.0286016
676.083	0.027669
676.217	0.0279799
676.352	0.0290369
676.487	0.0277933
676.622	0.0281664
676.757	0.0282286
676.892	0.0276068
677.027	0.0289747
677.162	0.0273581
677.297	0.0281664
677.431	0.028042
677.566	0.0275446
677.701	0.0295965
677.836	0.0281042
677.971	0.0291612
678.106	0.0269228
678.241	0.0286016
678.376	0.0278555
678.511	0.0281664
678.645	0.0279799
678.78	0.0286638
678.915	0.0279177
679.05	0.0283529
679.185	0.0283529
679.32	0.0275446
679.455	0.0281042
679.59	0.0274824
679.724	0.0277311
679.859	0.0282286
679.994	0.0282286
680.129	0.028726
680.264	0.028042
680.399	0.0281664
680.534	0.0277311
680.669	0.0277933
680.803	0.0283529
680.938	0.0276068
681.073	0.0279177
681.208	0.0273581
681.343	0.0275446
681.478	0.0284151
681.613	0.0283529
681.748	0.0284773
681.882	0.0284151
682.017	0.0282907
682.152	0.0286638
682.287	0.0286638
682.422	0.0286016
682.557	0.0283529
682.692	0.0281664
682.827	0.0274824
682.961	0.0292856
683.096	0.0274203
683.231	0.0281042
683.366	0.0281664
683.501	0.0285395
683.636	0.0283529
683.771	0.0282907
683.906	0.0291612
684.04	0.0274824
684.175	0.028042
684.31	0.0282286
684.445	0.028042
684.58	0.0283529
684.715	0.0285395
684.85	0.0277933
684.984	0.0282907
685.119	0.0285395
685.254	0.0286638
685.389	0.0286016
685.524	0.028726
685.659	0.0285395
685.794	0.028726
685.928	0.0283529
686.063	0.0277311
686.198	0.0288503
686.333	0.0279799
686.468	0.0272959
686.603	0.0277933
686.738	0.0279799
686.872	0.0279177
687.007	0.0284151
687.142	0.0279177
687.277	0.0284773
687.412	0.028726
687.547	0.0274824
687.682	0.0289125
687.816	0.0279799
687.951	0.0278555
688.086	0.0281664
688.221	0.0281664
688.356	0.0282907
688.491	0.0282907
688.626	0.0283529
688.76	0.0281042
688.895	0.0282286
689.03	0.0275446
689.165	0.0282286
689.3	0.0287882
689.435	0.0284773
689.57	0.0289747
689.704	0.0286638
689.839	0.0275446
689.974	0.0279799
690.109	0.0274824
690.244	0.0279177
690.379	0.0282907
690.513	0.0281042
690.648	0.0270472
690.783	0.0281042
690.918	0.0284151
691.053	0.0278555
691.188	0.0284773
691.323	0.028726
691.457	0.0281664
691.592	0.0282286
691.727	0.0287882
691.862	0.0276068
691.997	0.028042
692.132	0.0289125
692.266	0.0292234
692.401	0.0283529
692.536	0.0282286
692.671	0.028042
692.806	0.0282907
692.941	0.0279799
693.075	0.0283529
693.21	0.0282286
693.345	0.0279799
693.48	0.0276068
693.615	0.0282907
693.75	0.0282907
693.885	0.0282286
694.019	0.0283529
694.154	0.0282907
694.289	0.0277311
694.424	0.0286638
694.559	0.028042
694.694	0.0282286
694.828	0.0274824
694.963	0.0288503
695.098	0.0285395
695.233	0.0281042
695.368	0.0281042
695.503	0.0282286
695.637	0.0279177
695.772	0.0284151
695.907	0.0282907
696.042	0.0277933
696.177	0.0285395
696.312	0.0285395
696.446	0.0277933
696.581	0.028042
696.716	0.0284773
696.851	0.0275446
696.986	0.0283529
697.12	0.0282286
697.255	0.0277933
697.39	0.0277311
697.525	0.0284151
697.66	0.0281042
697.795	0.0284151
697.929	0.0274824
698.064	0.0281664
698.199	0.0285395
698.334	0.0273581
698.469	0.0282907
698.604	0.0289747
698.738	0.0282907
698.873	0.0282907
699.008	0.0279799
699.143	0.0282907
699.278	0.0283529
699.412	0.0281042
699.547	0.0270472
699.682	0.0287882
699.817	0.0284773
699.952	0.0287882
700.087	0.0284151
700.221	0.0274824
700.356	0.0282286
700.491	0.0282286
700.626	0.0278555
700.761	0.0281042
700.895	0.0283529
701.03	0.028726
701.165	0.0273581
701.3	0.0281664
701.435	0.0282286
701.57	0.0286016
701.704	0.0277933
701.839	0.0282907
701.974	0.0281664
702.109	0.0278555
702.244	0.0282286
702.378	0.0277933
702.513	0.0274824
702.648	0.0282907
702.783	0.028042
702.918	0.0278555
703.052	0.0282907
703.187	0.028042
703.322	0.0281042
703.457	0.0279177
703.592	0.0271094
703.727	0.0277933
703.861	0.0284151
703.996	0.0279177
704.131	0.0285395
704.266	0.0286638
704.401	0.0286638
704.535	0.0281664
704.67	0.0284151
704.805	0.0289125
704.94	0.028042
705.075	0.0295343
705.209	0.0281042
705.344	0.0277933
705.479	0.0288503
705.614	0.0282286
705.749	0.0272959
705.883	0.0289125
706.018	0.0277933
706.153	0.0279177
706.288	0.0282907
706.423	0.0277311
706.557	0.0276068
706.692	0.0282907
706.827	0.0287882
706.962	0.0285395
707.097	0.0278555
707.231	0.0286638
707.366	0.0283529
707.501	0.0292856
707.636	0.0290369
707.771	0.028042
707.905	0.0281042
708.04	0.0284151
708.175	0.0274824
708.31	0.027669
708.445	0.0281664
708.579	0.0284151
708.714	0.027669
708.849	0.0283529
708.984	0.0279177
709.118	0.0282286
709.253	0.0282286
709.388	0.028726
709.523	0.0277311
709.658	0.0282907
709.792	0.0281664
709.927	0.0284773
710.062	0.027669
710.197	0.0285395
710.332	0.0274824
710.466	0.028726
710.601	0.0286016
710.736	0.0290369
710.871	0.0278555
711.006	0.0289125
711.14	0.0282907
711.275	0.027669
711.41	0.0282286
711.545	0.0286638
711.679	0.0284773
711.814	0.0285395
711.949	0.0286016
712.084	0.0284151
712.219	0.0281042
712.353	0.0269228
712.488	0.0282286
712.623	0.0281042
712.758	0.0289125
712.892	0.0279799
713.027	0.0291612
713.162	0.027669
713.297	0.0284151
713.432	0.0298452
713.566	0.0281042
713.701	0.0291612
713.836	0.0282286
713.971	0.0283529
714.105	0.0285395
714.24	0.0281664
714.375	0.0279799
714.51	0.0287882
714.645	0.0275446
714.779	0.0272959
714.914	0.0286638
715.049	0.0282286
715.184	0.0279799
715.318	0.027669
715.453	0.0287882
715.588	0.0276068
715.723	0.0282286
715.858	0.0282907
715.992	0.028726
716.127	0.0284151
716.262	0.0281664
716.397	0.0286016
716.531	0.0282286
716.666	0.0285395
716.801	0.0281664
716.936	0.0286016
717.07	0.0279799
717.205	0.0289125
717.34	0.0281042
717.475	0.0281664
717.61	0.0284773
717.744	0.0289125
717.879	0.0283529
718.014	0.028042
718.149	0.0287882
718.283	0.0282907
718.418	0.0277933
718.553	0.0277933
718.688	0.0278555
718.822	0.0279177
718.957	0.0286638
719.092	0.0284773
719.227	0.028042
719.361	0.0279177
719.496	0.0277933
719.631	0.0290369
719.766	0.0272959
719.9	0.0281042
720.035	0.0285395
720.17	0.0289125
720.305	0.028042
720.44	0.0281042
720.574	0.0284151
720.709	0.0282907
720.844	0.0284151
720.979	0.0279799
721.113	0.0286016
721.248	0.0274824
721.383	0.0281664
721.518	0.0281664
721.652	0.0281664
721.787	0.0282286
721.922	0.0285395
722.057	0.0275446
722.191	0.0274824
722.326	0.029099
722.461	0.0279177
722.596	0.0281664
722.73	0.0272337
722.865	0.0281664
723	0.0285395
723.135	0.0284773
723.269	0.0284773
723.404	0.0279799
723.539	0.0283529
723.674	0.028042
723.808	0.0284773
723.943	0.0289125
724.078	0.0286016
724.213	0.0282286
724.347	0.0282286
724.482	0.0279799
724.617	0.0282286
724.752	0.0282286
724.886	0.0286016
725.021	0.028726
725.156	0.0277311
725.291	0.0284773
725.425	0.0279177
725.56	0.0286016
725.695	0.0281664
725.829	0.0284773
725.964	0.0282286
726.099	0.0278555
726.234	0.0282286
726.368	0.0288503
726.503	0.0285395
726.638	0.0281042
726.773	0.0274824
726.907	0.0281042
727.042	0.0284773
727.177	0.0283529
727.312	0.0276068
727.446	0.0281042
727.581	0.0281042
727.716	0.027669
727.851	0.0286016
727.985	0.0277933
728.12	0.028726
728.255	0.0270472
728.389	0.028726
728.524	0.0286016
728.659	0.0279799
728.794	0.0279799
728.928	0.0284773
729.063	0.0279177
729.198	0.0281664
729.333	0.0286638
729.467	0.0282286
729.602	0.0284773
729.737	0.0279799
729.872	0.0276068
730.006	0.0286016
730.141	0.0279799
730.276	0.0282907
730.41	0.0277933
730.545	0.0285395
730.68	0.0279799
730.815	0.0282907
730.949	0.0288503
731.084	0.0276068
731.219	0.028726
731.354	0.0277933
731.488	0.0285395
731.623	0.0278555
731.758	0.028726
731.892	0.0282286
732.027	0.0281042
732.162	0.0282907
732.297	0.0279799
732.431	0.0286016
732.566	0.0287882
732.701	0.0286638
732.835	0.0279177
732.97	0.0279177
733.105	0.0276068
733.24	0.0279799
733.374	0.0282907
733.509	0.0286638
733.644	0.0273581
733.779	0.0279177
733.913	0.0284773
734.048	0.0284773
734.183	0.0278555
734.317	0.0279177
734.452	0.028726
734.587	0.0283529
734.722	0.0283529
734.856	0.0266741
734.991	0.0287882
735.126	0.0282286
735.26	0.0275446
735.395	0.0286638
735.53	0.0279799
735.665	0.0281042
735.799	0.028042
735.934	0.0284773
736.069	0.0286638
736.203	0.0281664
736.338	0.029099
736.473	0.0284773
736.607	0.028042
736.742	0.0293478
736.877	0.0277933
737.012	0.0275446
737.146	0.0284773
737.281	0.0284151
737.416	0.028042
737.55	0.0277933
737.685	0.028726
737.82	0.0289125
737.955	0.0279799
738.089	0.0283529
738.224	0.0283529
738.359	0.0281042
738.493	0.0283529
738.628	0.0285395
738.763	0.0286016
738.897	0.0289125
739.032	0.0284151
739.167	0.0279177
739.302	0.0283529
739.436	0.0287882
739.571	0.0272959
739.706	0.0274824
739.84	0.0276068
739.975	0.0282286
740.11	0.0279799
740.244	0.0282907
740.379	0.0277933
740.514	0.0279799
740.649	0.0283529
740.783	0.0288503
740.918	0.0281042
741.053	0.0285395
741.187	0.0279177
741.322	0.0283529
741.457	0.0294099
741.591	0.028726
741.726	0.0283529
741.861	0.0282286
741.996	0.028042
742.13	0.0284151
742.265	0.0284151
742.4	0.0289125
742.534	0.0279799
742.669	0.029099
742.804	0.0283529
742.938	0.0284773
743.073	0.0283529
743.208	0.0281664
743.342	0.0283529
743.477	0.0272959
743.612	0.0279177
743.747	0.0276068
743.881	0.028726
744.016	0.0284773
744.151	0.0279799
744.285	0.0278555
744.42	0.0279799
744.555	0.0279799
744.689	0.0271715
744.824	0.0279177
744.959	0.0285395
745.093	0.0284151
745.228	0.0281042
745.363	0.0279799
745.497	0.0282286
745.632	0.0284151
745.767	0.0284773
745.901	0.0282286
746.036	0.0276068
746.171	0.0279799
746.305	0.0279177
746.44	0.0276068
746.575	0.0289125
746.71	0.0279799
746.844	0.0283529
746.979	0.0286638
747.114	0.0283529
747.248	0.0279177
747.383	0.0281042
747.518	0.0277311
747.652	0.0284773
747.787	0.0284773
747.922	0.028726
748.056	0.0292234
748.191	0.0278555
748.326	0.0278555
748.46	0.0288503
748.595	0.0277933
748.73	0.0285395
748.864	0.0276068
748.999	0.028726
749.134	0.0285395
749.268	0.0277933
749.403	0.0284773
749.538	0.0284151
749.672	0.028726
749.807	0.0286016
749.942	0.0277933
750.076	0.0285395
750.211	0.0270472
750.346	0.0272959
750.48	0.0282907
750.615	0.0277933
750.75	0.0281042
750.884	0.0289125
751.019	0.0277311
751.154	0.0284773
751.288	0.0284151
751.423	0.028042
751.558	0.028042
751.692	0.0284773
751.827	0.0279177
751.962	0.028042
752.096	0.0288503
752.231	0.0273581
752.366	0.0283529
752.5	0.0285395
752.635	0.0278555
752.77	0.0281042
752.904	0.0289125
753.039	0.0282907
753.174	0.0276068
753.308	0.0279177
753.443	0.0285395
753.578	0.0278555
753.712	0.0282286
753.847	0.0286638
753.982	0.0281664
754.116	0.0286638
754.251	0.0281664
754.386	0.0286016
754.52	0.0283529
754.655	0.0287882
754.79	0.0278555
754.924	0.027669
755.059	0.0274203
755.194	0.0284151
755.328	0.0277311
755.463	0.0287882
755.597	0.0281664
755.732	0.029099
755.867	0.0286638
756.001	0.0284151
756.136	0.0272337
756.271	0.0288503
756.405	0.0282286
756.54	0.0289125
756.675	0.0289747
756.809	0.0279799
756.944	0.028042
757.079	0.0277311
757.213	0.0281042
757.348	0.0272959
757.483	0.0279177
757.617	0.0271094
757.752	0.0277933
757.887	0.0282286
758.021	0.0278555
758.156	0.027669
758.29	0.0294721
758.425	0.0277311
758.56	0.0279799
758.694	0.0281042
758.829	0.0273581
758.964	0.0288503
759.098	0.0283529
759.233	0.0279177
759.368	0.0282286
759.502	0.028726
759.637	0.0284773
759.772	0.0284151
759.906	0.0278555
760.041	0.0281664
760.175	0.0289125
760.31	0.0289747
760.445	0.0271094
760.579	0.0279799
760.714	0.0286016
760.849	0.027669
760.983	0.0283529
761.118	0.0283529
761.253	0.0279177
761.387	0.0282286
761.522	0.0274824
761.656	0.0293478
761.791	0.0275446
761.926	0.0286638
762.06	0.0284151
762.195	0.0275446
762.33	0.0281042
762.464	0.0293478
762.599	0.0284151
762.733	0.0282286
762.868	0.0275446
763.003	0.0276068
763.137	0.0287882
763.272	0.0281042
763.407	0.0279177
763.541	0.0284151
763.676	0.0284773
763.811	0.0282286
763.945	0.0281042
764.08	0.0278555
764.214	0.0284151
764.349	0.0281042
764.484	0.027669
764.618	0.0277311
764.753	0.0277311
764.888	0.0284151
765.022	0.0281664
765.157	0.0279799
765.291	0.0290369
765.426	0.0283529
765.561	0.0278555
765.695	0.0282286
765.83	0.028042
765.965	0.028042
766.099	0.0279799
766.234	0.0282286
766.368	0.0279177
766.503	0.0282286
766.638	0.0293478
766.772	0.0274824
766.907	0.0279177
767.041	0.0282286
767.176	0.0279799
767.311	0.0281042
767.445	0.0279799
767.58	0.0277933
767.715	0.0282907
767.849	0.0277311
767.984	0.0287882
768.118	0.0286638
768.253	0.027669
768.388	0.0282907
768.522	0.0285395
768.657	0.0284773
768.791	0.0282907
768.926	0.0291612
769.061	0.0286638
769.195	0.0285395
769.33	0.0282286
769.465	0.0281664
769.599	0.0284151
769.734	0.0282907
769.868	0.0281664
770.003	0.0274824
770.138	0.0284151
770.272	0.0284151
770.407	0.0290369
770.541	0.0286016
770.676	0.0289747
770.811	0.0282286
770.945	0.028042
771.08	0.0298452
771.214	0.0283529
771.349	0.029099
771.484	0.0289747
771.618	0.0286638
771.753	0.0282286
771.887	0.0282286
772.022	0.027669
772.157	0.028042
772.291	0.0290369
772.426	0.0287882
772.56	0.0274203
772.695	0.0284151
772.83	0.0291612
772.964	0.0284151
773.099	0.0282286
773.233	0.0278555
773.368	0.026612
773.503	0.0284773
773.637	0.0279799
773.772	0.0286016
773.906	0.0281664
774.041	0.0286016
774.176	0.0277933
774.31	0.0279177
774.445	0.0277311
774.579	0.0282286
774.714	0.0289747
774.849	0.0279177
774.983	0.0288503
775.118	0.0275446
775.252	0.0282286
775.387	0.0286016
775.522	0.0282907
775.656	0.0282286
775.791	0.0284773
775.925	0.0281664
776.06	0.0282907
776.195	0.0279177
776.329	0.0286638
776.464	0.028726
776.598	0.0285395
776.733	0.0277933
776.868	0.0286016
777.002	0.0286016
777.137	0.026985
777.271	0.0289125
777.406	0.0274824
777.54	0.0277933
777.675	0.0282907
777.81	0.0294721
777.944	0.0278555
778.079	0.0284773
778.213	0.0289125
778.348	0.028042
778.483	0.0285395
778.617	0.0290369
778.752	0.0274824
778.886	0.0282907
779.021	0.0282286
779.155	0.0282907
779.29	0.0284151
779.425	0.0282907
779.559	0.0276068
779.694	0.0277933
779.828	0.0281664
779.963	0.0271715
780.098	0.0275446
780.232	0.0281042
780.367	0.028726
780.501	0.0283529
780.636	0.027669
780.77	0.0282907
780.905	0.0285395
781.04	0.028726
781.174	0.0274824
781.309	0.0281664
781.443	0.0277933
781.578	0.0288503
781.712	0.0285395
781.847	0.0286016
781.982	0.028042
782.116	0.0288503
782.251	0.0287882
782.385	0.0274824
782.52	0.028042
782.654	0.0272959
782.789	0.0289747
782.924	0.0292856
783.058	0.0281042
783.193	0.0265498
783.327	0.0278555
783.462	0.0284151
783.596	0.028042
783.731	0.0288503
783.866	0.0286638
784	0.0287882
784.135	0.028042
784.269	0.0279799
784.404	0.0277311
784.538	0.0283529
784.673	0.0283529
784.808	0.0283529
784.942	0.0277311
785.077	0.0274203
785.211	0.0288503
785.346	0.0291612
785.48	0.0286016
785.615	0.0279799
785.75	0.0283529
785.884	0.0284773
786.019	0.0277311
786.153	0.0282286
786.288	0.0283529
786.422	0.0285395
786.557	0.0279799
786.691	0.0285395
786.826	0.0282286
786.961	0.0289125
787.095	0.0282907
787.23	0.028726
787.364	0.0286638
787.499	0.0284151
787.633	0.0282907
787.768	0.0279177
787.902	0.0282907
788.037	0.0272959
788.172	0.0283529
788.306	0.0282907
788.441	0.0278555
788.575	0.0282907
788.71	0.0278555
788.844	0.0279177
788.979	0.0284773
789.113	0.0277933
789.248	0.0287882
789.383	0.028042
789.517	0.0287882
789.652	0.0281664
789.786	0.0283529
789.921	0.028042
790.055	0.0277933
790.19	0.0284151
790.324	0.0279177
790.459	0.0281664
790.594	0.0292856
790.728	0.0288503
790.863	0.0282907
790.997	0.0286638
791.132	0.027669
791.266	0.027669
791.401	0.0285395
791.535	0.0281042
791.67	0.0285395
791.804	0.0284151
791.939	0.0284773
792.074	0.0286638
792.208	0.0279177
792.343	0.0284773
792.477	0.0290369
792.612	0.0279177
792.746	0.0279799
792.881	0.0284151
793.015	0.0282286
793.15	0.0289125
793.284	0.0277933
793.419	0.0282907
793.553	0.0277311
793.688	0.029099
793.823	0.0285395
793.957	0.0282286
794.092	0.0282286
794.226	0.0285395
794.361	0.0275446
794.495	0.0286016
794.63	0.028726
794.764	0.028042
794.899	0.0277933
795.033	0.0284773
795.168	0.028042
795.302	0.0286638
795.437	0.0284151
795.572	0.0284773
795.706	0.0284773
795.841	0.0286016
795.975	0.028042
796.11	0.0282907
796.244	0.0274203
796.379	0.0295343
796.513	0.0285395
796.648	0.0289747
796.782	0.0284151
796.917	0.0283529
797.051	0.0282907
797.186	0.0284773
797.32	0.0286016
797.455	0.028726
797.589	0.0281664
797.724	0.0288503
797.859	0.0284773
797.993	0.0285395
798.128	0.0282286
798.262	0.0281664
798.397	0.0278555
798.531	0.0284773
798.666	0.0281042
798.8	0.0271715
798.935	0.0282907
799.069	0.0286638
799.204	0.027669
799.338	0.0292856
799.473	0.0281664
799.607	0.0286016
799.742	0.0275446
799.876	0.0284773
800.011	0.0283529
800.145	0.0290369
800.28	0.0281664
800.414	0.0285395
800.549	0.027669
800.683	0.0274203
800.818	0.0285395
800.953	0.0278555
801.087	0.028042
801.222	0.0279177
801.356	0.0282907
801.491	0.0282286
801.625	0.0279177
801.76	0.0284151
801.894	0.0277311
802.029	0.0281664
802.163	0.0287882
802.298	0.028726
802.432	0.0285395
802.567	0.0279799
802.701	0.0290369
802.836	0.0281042
802.97	0.0282907
803.105	0.0284773
803.239	0.0282286
803.374	0.0275446
803.508	0.0284773
803.643	0.028726
803.777	0.0282907
803.912	0.028042
804.046	0.0289747
804.181	0.0282907
804.315	0.028726
804.45	0.029099
804.584	0.0288503
804.719	0.0291612
804.853	0.0292234
804.988	0.0279177
805.122	0.0289125
805.257	0.0286016
805.391	0.028726
805.526	0.0286638
805.66	0.0279799
805.795	0.0297208
805.929	0.0292234
806.064	0.0289125
806.198	0.0289747
806.333	0.0289747
806.467	0.0291612
806.602	0.0286638
806.736	0.0294721
806.871	0.0288503
807.005	0.0291612
807.14	0.0290369
807.274	0.0287882
807.409	0.0294721
807.543	0.0304048
807.678	0.0288503
807.812	0.0295343
807.947	0.0299074
808.081	0.0294099
808.216	0.0290369
808.35	0.0300939
808.485	0.0295965
808.619	0.0290369
808.754	0.0299074
808.888	0.030467
809.023	0.0314618
809.157	0.0312131
809.292	0.0299695
809.426	0.0316483
809.561	0.0323945
809.695	0.0320214
809.83	0.0325188
809.964	0.0320214
810.099	0.0325188
810.233	0.0325188
810.368	0.0333271
810.502	0.0340732
810.637	0.0343841
810.771	0.0355033
810.906	0.035752
811.04	0.0376795
811.175	0.0398557
811.309	0.0419076
811.444	0.0480632
811.578	0.0807063
811.713	0.0835665
811.847	0.0782814
811.982	0.08481
812.116	0.104769
812.251	0.143506
812.385	0.854318
812.519	0.941802
812.654	1
812.788	0.975689
812.923	0.982777
813.057	0.852764
813.192	0.318349
813.326	0.483616
813.461	0.678729
813.595	0.362059
813.73	0.12622
813.864	0.107816
813.999	0.104831
814.133	0.133744
814.268	0.228316
814.402	0.216502
814.537	0.127712
814.671	0.138842
814.806	0.127153
814.94	0.0547783
815.075	0.0349437
815.209	0.0334515
815.344	0.0313374
815.478	0.031897
815.612	0.0321457
815.747	0.0323323
815.881	0.0313374
816.016	0.0307778
816.15	0.03084
816.285	0.0295965
816.419	0.030467
816.554	0.0300317
816.688	0.0305291
816.823	0.0295343
816.957	0.029099
817.092	0.030467
817.226	0.0292856
817.361	0.0297208
817.495	0.029783
817.63	0.0300939
817.764	0.0292234
817.898	0.0302182
818.033	0.0287882
818.167	0.0290369
818.302	0.0294099
818.436	0.0283529
818.571	0.0300939
818.705	0.0290369
818.84	0.0296586
818.974	0.0289125
819.109	0.0290369
819.243	0.0281664
819.378	0.0292856
819.512	0.0282907
819.646	0.0287882
819.781	0.029099
819.915	0.0286638
820.05	0.0293478
820.184	0.0285395
820.319	0.0282907
820.453	0.0282286
820.588	0.0284773
820.722	0.0287882
820.857	0.0290369
820.991	0.0277933
821.126	0.028726
821.26	0.0286016
821.394	0.0289747
821.529	0.0284151
821.663	0.0289125
821.798	0.0281042
821.932	0.0284151
822.067	0.0282286
822.201	0.0287882
822.336	0.0277311
822.47	0.0283529
822.605	0.0284151
822.739	0.0281664
822.873	0.0282907
823.008	0.0284773
823.142	0.0279799
823.277	0.0289125
823.411	0.0290369
823.546	0.0286016
823.68	0.0277933
823.815	0.0294721
823.949	0.0283529
824.083	0.0287882
824.218	0.0282907
824.352	0.0281042
824.487	0.0286016
824.621	0.0281042
824.756	0.027669
824.89	0.0285395
825.025	0.0284773
825.159	0.0289747
825.293	0.0284773
825.428	0.0290369
825.562	0.0292234
825.697	0.0279177
825.831	0.0278555
825.966	0.0282286
826.1	0.0290369
826.235	0.0284773
826.369	0.027669
826.503	0.0284773
826.638	0.028042
826.772	0.0272959
826.907	0.0279799
827.041	0.0285395
827.176	0.0282907
827.31	0.0281664
827.445	0.0279799
827.579	0.028042
827.713	0.0282286
827.848	0.0282907
827.982	0.028042
828.117	0.028726
828.251	0.0281042
828.386	0.0288503
828.52	0.0275446
828.654	0.0288503
828.789	0.0289125
828.923	0.0269228
829.058	0.0289125
829.192	0.0285395
829.327	0.0275446
829.461	0.0279799
829.596	0.0285395
829.73	0.0279799
829.864	0.028042
829.999	0.0286638
830.133	0.027669
830.268	0.0284773
830.402	0.0284151
830.537	0.0278555
830.671	0.0287882
830.805	0.0286016
830.94	0.0271094
831.074	0.0283529
831.209	0.0277933
831.343	0.0289747
831.478	0.0285395
831.612	0.0281664
831.746	0.0292234
831.881	0.0289125
832.015	0.028726
832.15	0.0284773
832.284	0.028042
832.418	0.0286016
832.553	0.0285395
832.687	0.027669
832.822	0.0282907
832.956	0.0279799
833.091	0.0283529
833.225	0.0284151
833.359	0.0278555
833.494	0.0282907
833.628	0.0286638
833.763	0.0287882
833.897	0.0286638
834.032	0.0295343
834.166	0.0286016
834.3	0.0277933
834.435	0.0281042
834.569	0.0284151
834.704	0.0276068
834.838	0.0279177
834.972	0.0282907
835.107	0.0283529
835.241	0.0279799
835.376	0.0284773
835.51	0.0290369
835.645	0.0292234
835.779	0.0282286
835.913	0.0289125
836.048	0.0282286
836.182	0.028042
836.317	0.0283529
836.451	0.0284151
836.585	0.0281664
836.72	0.0282286
836.854	0.0278555
836.989	0.0284773
837.123	0.0282286
837.257	0.0271715
837.392	0.0284773
837.526	0.0276068
837.661	0.028726
837.795	0.029099
837.929	0.0284151
838.064	0.028042
838.198	0.0278555
838.333	0.0278555
838.467	0.0282286
838.602	0.0284773
838.736	0.0283529
838.87	0.0284773
839.005	0.0286016
839.139	0.0284773
839.274	0.0282907
839.408	0.0287882
839.542	0.028726
839.677	0.0282286
839.811	0.0281042
839.946	0.0288503
840.08	0.028042
840.214	0.0278555
840.349	0.0275446
840.483	0.0276068
840.618	0.0284151
840.752	0.0288503
840.886	0.0285395
841.021	0.0276068
841.155	0.027669
841.29	0.0281664
841.424	0.0281042
841.558	0.0278555
841.693	0.0273581
841.827	0.0282907
841.961	0.0281042
842.096	0.0284151
842.23	0.0285395
842.365	0.0274203
842.499	0.0282286
842.633	0.0278555
842.768	0.0272959
842.902	0.028726
843.037	0.0282286
843.171	0.0288503
843.305	0.0277933
843.44	0.0281664
843.574	0.0282286
843.709	0.0284773
843.843	0.0283529
843.977	0.0283529
844.112	0.0288503
844.246	0.0275446
844.381	0.0278555
844.515	0.0279799
844.649	0.0275446
844.784	0.0282286
844.918	0.0285395
845.052	0.0289125
845.187	0.0274824
845.321	0.028042
845.456	0.0288503
845.59	0.0282286
845.724	0.0274203
845.859	0.0283529
845.993	0.0288503
846.128	0.0282286
846.262	0.028042
846.396	0.0282907
846.531	0.0272337
846.665	0.0286638
846.799	0.0288503
846.934	0.0279799
847.068	0.0281042
847.203	0.0290369
847.337	0.0282907
847.471	0.0275446
847.606	0.028042
847.74	0.027669
847.874	0.0281042
848.009	0.0284773
848.143	0.0284151
848.278	0.0281042
848.412	0.0281042
848.546	0.0281664
848.681	0.0281664
848.815	0.0279177
848.949	0.0279799
849.084	0.0279799
849.218	0.0289747
849.353	0.0275446
849.487	0.0281042
849.621	0.0282286
849.756	0.0279799
849.89	0.0284151
850.024	0.0286638
850.159	0.028726
850.293	0.0284773
850.428	0.0291612
850.562	0.0271715
850.696	0.0281042
850.831	0.0277311
850.965	0.0284773
851.099	0.0277933
851.234	0.0282907
851.368	0.0282907
851.502	0.0276068
851.637	0.0273581
851.771	0.0286016
851.906	0.0281664
852.04	0.0273581
852.174	0.0284773
852.309	0.0272337
852.443	0.027669
852.577	0.0284151
852.712	0.028042
852.846	0.0286016
852.98	0.028726
853.115	0.0272959
853.249	0.0283529
853.384	0.0279177
853.518	0.0287882
853.652	0.0284773
853.787	0.0290369
853.921	0.0274203
854.055	0.0277311
854.19	0.028042
854.324	0.0278555
854.458	0.0289747
854.593	0.0279177
854.727	0.027669
854.861	0.0287882
854.996	0.0274824
855.13	0.0277311
855.265	0.0282286
855.399	0.0284773
855.533	0.0281042
855.668	0.028042
855.802	0.0282907
855.936	0.027669
856.071	0.0284151
856.205	0.0281042
856.339	0.028042
856.474	0.0283529
856.608	0.0282907
856.742	0.0289747
856.877	0.028042
857.011	0.0282286
857.145	0.0281664
857.28	0.028726
857.414	0.0277933
857.549	0.0274824
857.683	0.0282907
857.817	0.0277933
857.952	0.0277311
858.086	0.0287882
858.22	0.0286638
858.355	0.0282286
858.489	0.028042
858.623	0.0281664
858.758	0.0281664
858.892	0.0282286
859.026	0.0291612
859.161	0.0274824
859.295	0.0286638
859.429	0.0281042
859.564	0.0284151
859.698	0.0279177
859.832	0.0272337
859.967	0.0283529
860.101	0.0276068
860.235	0.0287882
860.37	0.0282907
860.504	0.0290369
860.638	0.0270472
860.773	0.0278555
860.907	0.0281042
861.041	0.0289125
861.176	0.0290369
861.31	0.027669
861.444	0.0277311
861.579	0.0277311
861.713	0.029099
861.847	0.0281664
861.982	0.0283529
862.116	0.029099
862.25	0.0284151
862.385	0.028042
862.519	0.0282907
862.653	0.0282286
862.788	0.029099
862.922	0.0282907
863.056	0.0285395
863.191	0.0282286
863.325	0.0285395
863.459	0.0286638
863.594	0.0282907
863.728	0.027669
863.862	0.0292856
863.997	0.028042
864.131	0.0275446
864.265	0.0282286
864.4	0.0289125
864.534	0.0279799
864.668	0.0291612
864.803	0.0274203
864.937	0.0281664
865.071	0.0276068
865.206	0.0285395
865.34	0.0275446
865.474	0.0283529
865.609	0.0272959
865.743	0.0275446
865.877	0.0273581
866.012	0.0276068
866.146	0.0288503
866.28	0.0276068
866.415	0.0285395
866.549	0.0281664
866.683	0.0287882
866.818	0.0279799
866.952	0.0283529
867.086	0.0279799
867.221	0.027669
867.355	0.0274824
867.489	0.0276068
867.623	0.0287882
867.758	0.0282907
867.892	0.0285395
868.026	0.0283529
868.161	0.0279799
868.295	0.0279799
868.429	0.0277311
868.564	0.0286638
868.698	0.0279177
868.832	0.029099
868.967	0.028726
869.101	0.0284151
869.235	0.0277933
869.37	0.027669
869.504	0.0281042
869.638	0.0278555
869.773	0.0292856
869.907	0.0284151
870.041	0.028726
870.175	0.0276068
870.31	0.0286016
870.444	0.0278555
870.578	0.029099
870.713	0.0273581
870.847	0.028726
870.981	0.0282907
871.116	0.0291612
871.25	0.0277311
871.384	0.0277933
871.519	0.0285395
871.653	0.0273581
871.787	0.0284151
871.921	0.0281042
872.056	0.0276068
872.19	0.0279177
872.324	0.028042
872.459	0.027669
872.593	0.0283529
872.727	0.0286016
872.862	0.028726
872.996	0.0277311
873.13	0.028042
873.264	0.0272959
873.399	0.0279177
873.533	0.028726
873.667	0.0288503
873.802	0.0282286
873.936	0.0282286
874.07	0.0287882
874.205	0.0282286
874.339	0.029099
874.473	0.0284151
874.607	0.0277311
874.742	0.0284151
874.876	0.0282286
875.01	0.0277311
875.145	0.0287882
875.279	0.0282286
875.413	0.0281664
875.548	0.0279799
875.682	0.0284151
875.816	0.028042
875.95	0.0286638
876.085	0.0282286
876.219	0.0291612
876.353	0.0284773
876.488	0.0285395
876.622	0.0282286
876.756	0.0283529
876.89	0.0279799
877.025	0.0285395
877.159	0.028042
877.293	0.0294099
877.428	0.0282907
877.562	0.0276068
877.696	0.0281664
877.83	0.028042
877.965	0.0286638
878.099	0.0282907
878.233	0.0274203
878.368	0.0284151
878.502	0.0282907
878.636	0.0271715
878.77	0.0282286
878.905	0.0295343
879.039	0.0277311
879.173	0.0279799
879.308	0.0277933
879.442	0.0276068
879.576	0.0283529
879.71	0.0279799
879.845	0.0284773
879.979	0.0277933
880.113	0.0272959
880.248	0.0271094
880.382	0.0276068
880.516	0.0284151
880.65	0.028042
880.785	0.0283529
880.919	0.0275446
881.053	0.0272337
881.188	0.0277933
881.322	0.0289125
881.456	0.0284151
881.59	0.0281042
881.725	0.027669
881.859	0.0284773
881.993	0.0287882
882.127	0.0285395
882.262	0.0279799
882.396	0.0282907
882.53	0.0285395
882.665	0.0285395
882.799	0.0282907
882.933	0.0288503
883.067	0.0281664
883.202	0.0285395
883.336	0.0272959
883.47	0.028042
883.604	0.0289125
883.739	0.0272959
883.873	0.0275446
884.007	0.0290369
884.142	0.0271094
884.276	0.0278555
884.41	0.0284151
884.544	0.0277311
884.679	0.0277311
884.813	0.0284151
884.947	0.0284773
885.081	0.0285395
885.216	0.0274824
885.35	0.0284773
885.484	0.027669
885.618	0.0282286
885.753	0.0284151
885.887	0.0289125
886.021	0.0275446
886.155	0.0272959
886.29	0.0284773
886.424	0.0277311
886.558	0.0281664
886.693	0.0277311
886.827	0.0283529
886.961	0.0281664
887.095	0.0284151
887.23	0.0282907
887.364	0.0281042
887.498	0.0290369
887.632	0.0281664
887.767	0.0277933
887.901	0.0277311
888.035	0.028042
888.169	0.0285395
888.304	0.0284773
888.438	0.0275446
888.572	0.0282286
888.706	0.0287882
888.841	0.0281664
888.975	0.0282907
889.109	0.0284773
889.243	0.0281664
889.378	0.029099
889.512	0.0283529
889.646	0.0277311
889.78	0.0289125
889.915	0.0282907
890.049	0.0282286
890.183	0.0281664
890.317	0.0282286
890.452	0.0278555
890.586	0.028042
890.72	0.0285395
890.854	0.0281664
890.989	0.0286016
891.123	0.027669
891.257	0.0281042
891.391	0.0282907
891.526	0.0285395
891.66	0.0281042
891.794	0.0274824
891.928	0.0282907
892.063	0.0283529
892.197	0.0274203
892.331	0.028042
892.465	0.0290369
892.6	0.0283529
892.734	0.0286638
892.868	0.0277311
893.002	0.0281664
893.137	0.0286016
893.271	0.028726
893.405	0.0284151
893.539	0.0289747
893.674	0.0274824
893.808	0.0281042
893.942	0.0290369
894.076	0.0271715
894.21	0.0281664
894.345	0.0281664
894.479	0.0282286
894.613	0.0284773
894.747	0.0281664
894.882	0.0279177
895.016	0.028042
895.15	0.0274203
895.284	0.0282286
895.419	0.0277311
895.553	0.0281664
895.687	0.0284773
895.821	0.0284773
895.956	0.0273581
896.09	0.0286016
896.224	0.0284151
896.358	0.0279799
896.492	0.0274824
896.627	0.0286016
896.761	0.0282286
896.895	0.0279799
897.029	0.0282286
897.164	0.0286016
897.298	0.0285395
897.432	0.0285395
897.566	0.027669
897.701	0.0276068
897.835	0.0281664
897.969	0.0289747
898.103	0.0279799
898.237	0.0279177
898.372	0.0277311
898.506	0.0279799
898.64	0.0272337
898.774	0.0283529
898.909	0.0286638
899.043	0.0285395
899.177	0.0279799
899.311	0.028042
899.445	0.0286638
899.58	0.0272337
899.714	0.0282907
899.848	0.0284151
899.982	0.0273581
900.117	0.0283529
900.251	0.0287882
900.385	0.0282907
900.519	0.0287882
900.653	0.0282907
900.788	0.0281664
900.922	0.0272337
901.056	0.0282907
901.19	0.0292234
901.325	0.028042
901.459	0.0277311
901.593	0.0284773
901.727	0.0282907
901.861	0.0292234
901.996	0.0284773
902.13	0.0281042
902.264	0.0282907
902.398	0.0279799
902.532	0.0288503
902.667	0.0274203
902.801	0.0287882
902.935	0.027669
903.069	0.0292856
903.204	0.0288503
903.338	0.0288503
903.472	0.027669
903.606	0.0281042
903.74	0.0279177
903.875	0.028726
904.009	0.0282907
904.143	0.0286016
904.277	0.0282286
904.411	0.0281042
904.546	0.0284773
904.68	0.0282286
904.814	0.0282907
904.948	0.028042
905.082	0.0287882
905.217	0.0274203
905.351	0.0279799
905.485	0.0295343
905.619	0.028042
905.753	0.0279799
905.888	0.0281042
906.022	0.0282286
906.156	0.0274824
906.29	0.0286016
906.424	0.0281664
906.559	0.0284151
906.693	0.027669
906.827	0.0282907
906.961	0.0284151
907.095	0.0277311
907.23	0.0279799
907.364	0.0276068
907.498	0.0286016
907.632	0.0288503
907.766	0.0282286
907.901	0.0289125
908.035	0.0289747
908.169	0.0278555
908.303	0.0281042
908.437	0.0279177
908.572	0.028042
908.706	0.0281664
908.84	0.0289125
908.974	0.0282907
909.108	0.0277311
909.243	0.0279799
909.377	0.0283529
909.511	0.0276068
909.645	0.0284773
909.779	0.0284151
909.914	0.0282286
910.048	0.0286638
910.182	0.0286016
910.316	0.0291612
910.45	0.026985
910.585	0.0287882
910.719	0.028726
910.853	0.0281664
910.987	0.0277311
911.121	0.0282907
911.255	0.0277933
911.39	0.0281664
911.524	0.028042
911.658	0.0282907
911.792	0.0284773
911.926	0.0279177
912.061	0.0286638
912.195	0.0277933
912.329	0.0271715
912.463	0.0281664
912.597	0.0279799
912.732	0.0279177
912.866	0.028726
913	0.0274824
913.134	0.0281664
913.268	0.0284151
913.402	0.0279799
913.537	0.0278555
913.671	0.0283529
913.805	0.0281042
913.939	0.0282907
914.073	0.0279177
914.208	0.0281664
914.342	0.0286016
914.476	0.0289747
914.61	0.0286638
914.744	0.0284151
914.878	0.0282286
915.013	0.0278555
915.147	0.0285395
915.281	0.0274824
915.415	0.0289747
915.549	0.0285395
915.683	0.028726
915.818	0.0286016
915.952	0.0286016
916.086	0.028726
916.22	0.0287882
916.354	0.0277933
916.488	0.028042
916.623	0.0278555
916.757	0.0284773
916.891	0.0289125
917.025	0.0279799
917.159	0.0286016
917.293	0.0272337
917.428	0.0282907
917.562	0.027669
917.696	0.0285395
917.83	0.0281664
917.964	0.028726
918.098	0.0285395
918.233	0.0284773
918.367	0.0279799
918.501	0.0287882
918.635	0.0285395
918.769	0.0274203
918.903	0.0284151
919.038	0.0286638
919.172	0.0277311
919.306	0.0275446
919.44	0.0283529
919.574	0.0272959
919.708	0.0277933
919.843	0.0281042
919.977	0.0275446
920.111	0.0274824
920.245	0.028042
920.379	0.0279177
920.513	0.0277933
920.648	0.0289747
920.782	0.027669
920.916	0.0287882
921.05	0.0278555
921.184	0.0286016
921.318	0.0277933
921.453	0.0272959
921.587	0.028042
921.721	0.0287882
921.855	0.0281042
921.989	0.0277933
922.123	0.0279799
922.257	0.0286638
922.392	0.0279799
922.526	0.0279799
922.66	0.0285395
922.794	0.0283529
922.928	0.0286016
923.062	0.0281042
923.197	0.0279799
923.331	0.0271715
923.465	0.029099
923.599	0.0279177
923.733	0.0281042
923.867	0.0282907
924.001	0.0284773
924.136	0.0277311
924.27	0.029099
924.404	0.0286016
924.538	0.0278555
924.672	0.0289125
924.806	0.0282286
924.94	0.0274824
925.075	0.029099
925.209	0.0277933
925.343	0.0281664
925.477	0.0279177
925.611	0.0279799
925.745	0.0282907
925.879	0.0277933
926.014	0.0284151
926.148	0.027669
926.282	0.028042
926.416	0.0279799
926.55	0.0277933
926.684	0.0277933
926.818	0.0286016
926.953	0.0281664
927.087	0.0286016
927.221	0.028726
927.355	0.0271094
927.489	0.0295965
927.623	0.0273581
927.757	0.0279177
927.892	0.0274203
928.026	0.0277311
928.16	0.0282907
928.294	0.0288503
928.428	0.0278555
928.562	0.0282907
928.696	0.0278555
928.831	0.0284151
928.965	0.028042
929.099	0.0288503
929.233	0.0282286
929.367	0.0288503
929.501	0.0279177
929.635	0.0275446
929.769	0.0271094
929.904	0.0281664
930.038	0.0281664
930.172	0.0276068
930.306	0.0284151
930.44	0.0284773
930.574	0.0278555
930.708	0.0284151
930.843	0.028042
930.977	0.0281042
931.111	0.0274203
931.245	0.0285395
931.379	0.0286016
931.513	0.0289125
931.647	0.0282286
931.781	0.0287882
931.916	0.0277933
932.05	0.028042
932.184	0.0284151
932.318	0.0287882
932.452	0.0283529
932.586	0.0281664
932.72	0.0285395
932.854	0.0277311
932.989	0.0279177
933.123	0.0283529
933.257	0.0279799
933.391	0.0281042
933.525	0.028042
933.659	0.027669
933.793	0.0285395
933.927	0.0285395
934.061	0.0286638
934.196	0.0286638
934.33	0.0279799
934.464	0.0283529
934.598	0.0279799
934.732	0.0284151
934.866	0.0279799
935	0.028042
935.134	0.0284151
935.269	0.0287882
935.403	0.028042
935.537	0.0288503
935.671	0.0274203
935.805	0.0281042
935.939	0.0275446
936.073	0.027669
936.207	0.0284151
936.341	0.0281664
936.476	0.0278555
936.61	0.0284773
936.744	0.028042
936.878	0.0276068
937.012	0.0287882
937.146	0.0278555
937.28	0.0278555
937.414	0.0288503
937.548	0.0290369
937.683	0.028726
937.817	0.0275446
937.951	0.0285395
938.085	0.0281664
938.219	0.0278555
938.353	0.0279177
938.487	0.0282907
938.621	0.0279799
938.755	0.0274203
938.889	0.0279177
939.024	0.0284151
939.158	0.0282286
939.292	0.0281042
939.426	0.0277311
939.56	0.0286638
939.694	0.0285395
939.828	0.0281664
939.962	0.0285395
940.096	0.0284773
940.231	0.0282286
940.365	0.0282907
940.499	0.0282286
940.633	0.029099
940.767	0.0286016
940.901	0.0278555
941.035	0.0288503
941.169	0.028042
941.303	0.0271715
941.437	0.0282286
941.571	0.0286016
941.706	0.0284151
941.84	0.0284151
941.974	0.0279799
942.108	0.0283529
942.242	0.0279177
942.376	0.0281664
942.51	0.0286016
942.644	0.0282907
942.778	0.0281042
942.912	0.0281042
943.047	0.0284151
943.181	0.0278555
943.315	0.028042
943.449	0.026985
943.583	0.0292234
943.717	0.028726
943.851	0.0274203
943.985	0.0278555
944.119	0.0279177
944.253	0.028042
944.387	0.0282907
944.522	0.0278555
944.656	0.0278555
944.79	0.0274824
944.924	0.0282286
945.058	0.0289125
945.192	0.0282286
945.326	0.028042
945.46	0.0286016
945.594	0.0275446
945.728	0.0284151
945.862	0.0281664
945.996	0.0290369
946.131	0.0283529
946.265	0.0284151
946.399	0.0282907
946.533	0.0279799
946.667	0.0289125
946.801	0.0292234
946.935	0.0277311
947.069	0.0293478
947.203	0.0282286
947.337	0.027669
947.471	0.0276068
947.605	0.0281664
947.739	0.0281042
947.874	0.028726
948.008	0.0272959
948.142	0.0279799
948.276	0.0286638
948.41	0.0284773
948.544	0.0286638
948.678	0.0281042
948.812	0.0284773
948.946	0.029099
949.08	0.0279177
949.214	0.0283529
949.348	0.0271715
949.482	0.0281042
949.617	0.0271094
949.751	0.0277311
949.885	0.0274203
950.019	0.0279177
950.153	0.027669
950.287	0.028726
950.421	0.0284151
950.555	0.0289747
950.689	0.0286638
950.823	0.0284151
950.957	0.0274203
951.091	0.0281664
951.225	0.028042
951.359	0.0279799
951.493	0.0276068
951.628	0.0281664
951.762	0.027669
951.896	0.0289747
952.03	0.0288503
952.164	0.0284773
952.298	0.0275446
952.432	0.0281664
952.566	0.0282907
952.7	0.0289125
952.834	0.0282907
952.968	0.0273581
953.102	0.0289125
953.236	0.0293478
953.37	0.0281042
953.504	0.0279799
953.639	0.0284773
953.773	0.0288503
953.907	0.0284151
954.041	0.0289125
954.175	0.0286638
954.309	0.0293478
954.443	0.0285395
954.577	0.0284151
954.711	0.0285395
954.845	0.0285395
954.979	0.0288503
955.113	0.0282907
955.247	0.0281042
955.381	0.0277311
955.515	0.0279799
955.649	0.0281664
955.783	0.0282907
955.917	0.0285395
956.052	0.028042
956.186	0.028726
956.32	0.0289125
956.454	0.0288503
956.588	0.0281042
956.722	0.0279177
956.856	0.0279177
956.99	0.0278555
957.124	0.0286638
957.258	0.028726
957.392	0.0289125
957.526	0.0277311
957.66	0.0272959
957.794	0.0269228
957.928	0.0283529
958.062	0.0287882
958.196	0.0279177
958.33	0.0285395
958.464	0.0279799
958.598	0.0277933
958.733	0.0284773
958.867	0.0284773
959.001	0.0276068
959.135	0.0279177
959.269	0.0283529
959.403	0.0282286
959.537	0.0282286
959.671	0.0282286
959.805	0.0288503
959.939	0.0282286
960.073	0.0283529
960.207	0.0286016
960.341	0.0279799
960.475	0.0284773
960.609	0.0282907
960.743	0.0277311
960.877	0.0279177
961.011	0.0281664
961.145	0.0271715
961.279	0.0286638
961.413	0.0283529
961.547	0.0281664
961.681	0.0279799
961.815	0.0282286
961.949	0.0281042
962.083	0.0286016
962.218	0.0279177
962.352	0.0284151
962.486	0.028726
962.62	0.0287882
962.754	0.0284151
962.888	0.0282286
963.022	0.0276068
963.156	0.0286638
963.29	0.0283529
963.424	0.0284151
963.558	0.028042
963.692	0.0282286
963.826	0.0285395
963.96	0.0279177
964.094	0.0286638
964.228	0.0290369
964.362	0.0281664
964.496	0.0286016
964.63	0.0279799
964.764	0.0286638
964.898	0.0286016
965.032	0.0281042
965.166	0.0277311
965.3	0.0274203
965.434	0.0285395
965.568	0.0281664
965.702	0.0275446
965.836	0.0281042
965.97	0.0281042
966.104	0.0282286
966.238	0.0279177
966.372	0.0281664
966.506	0.0282286
966.64	0.0278555
966.774	0.0279177
966.908	0.0283529
967.043	0.0286016
967.177	0.0286638
967.311	0.028726
967.445	0.0279799
967.579	0.0281042
967.713	0.0286638
967.847	0.0281664
967.981	0.0285395
968.115	0.0277933
968.249	0.0285395
968.383	0.0284773
968.517	0.0281664
968.651	0.029099
968.785	0.0284151
968.919	0.0276068
969.053	0.0281664
969.187	0.0278555
969.321	0.0282907
969.455	0.0277933
969.589	0.0285395
969.723	0.0277311
969.857	0.0275446
969.991	0.0284773
970.125	0.0269228
970.259	0.0279177
970.393	0.0284773
970.527	0.028726
970.661	0.0278555
970.795	0.0272959
970.929	0.0277933
971.063	0.0284151
971.197	0.0286016
971.331	0.0282907
971.465	0.0279799
971.599	0.0286638
971.733	0.0282286
971.867	0.027669
972.001	0.0288503
972.135	0.0282286
972.269	0.028726
972.403	0.0295343
972.537	0.0289125
972.671	0.0282286
972.805	0.0286016
972.939	0.0281042
973.073	0.0284151
973.207	0.0279177
973.341	0.0281042
973.475	0.0282286
973.609	0.0285395
973.743	0.0279799
973.877	0.0288503
974.011	0.0286016
974.145	0.0282286
974.279	0.0277311
974.413	0.0281042
974.547	0.0277311
974.681	0.0282907
974.815	0.0279799
974.949	0.0287882
975.083	0.0283529
975.217	0.0288503
975.351	0.0281664
975.485	0.0284773
975.619	0.0277311
975.753	0.0282286
975.887	0.0277933
976.021	0.0282286
976.155	0.0281664
976.289	0.0284773
976.423	0.0282907
976.557	0.0289125
976.691	0.0288503
976.825	0.0283529
976.959	0.0279799
977.093	0.028042
977.227	0.0285395
977.361	0.0279177
977.495	0.0278555
977.629	0.027669
977.763	0.0281664
977.897	0.0287882
978.031	0.0281664
978.165	0.0286638
978.299	0.027669
978.433	0.0279799
978.567	0.0278555
978.701	0.0281042
978.835	0.0286016
978.969	0.0285395
979.103	0.0281664
979.237	0.0282286
979.371	0.0289125
979.505	0.0282286
979.639	0.0282907
979.773	0.0278555
979.907	0.0284151
980.041	0.0277311
980.175	0.0282907
980.308	0.0281042
980.442	0.0290369
980.576	0.0286638
980.71	0.0274824
980.844	0.0279799
980.978	0.0276068
981.112	0.0275446
981.246	0.0283529
981.38	0.0278555
981.514	0.0284151
981.648	0.0275446
981.782	0.0281664
981.916	0.0284151
982.05	0.028042
982.184	0.0289747
982.318	0.0286016
982.452	0.0282286
982.586	0.0272959
982.72	0.0285395
982.854	0.0288503
982.988	0.027669
983.122	0.0275446
983.256	0.0286016
983.39	0.0278555
983.524	0.0279799
983.658	0.0271715
983.792	0.0277311
983.926	0.0273581
984.06	0.0283529
984.194	0.0277311
984.328	0.0284151
984.462	0.0283529
984.596	0.0281042
984.73	0.0278555
984.864	0.028042
984.998	0.0279177
985.132	0.0279177
985.265	0.0281042
985.399	0.0279177
985.533	0.0285395
985.667	0.0284773
985.801	0.0287882
985.935	0.028726
986.069	0.0282286
986.203	0.0275446
986.337	0.0282286
986.471	0.0282286
986.605	0.0282907
986.739	0.0288503
986.873	0.0274824
987.007	0.0279177
987.141	0.0288503
987.275	0.0267985
987.409	0.0277311
987.543	0.0277933
987.677	0.0282907
987.811	0.028042
987.945	0.0275446
988.079	0.0294099
988.213	0.0277311
988.347	0.0284151
988.481	0.0282907
988.614	0.028042
988.748	0.0283529
988.882	0.029099
989.016	0.0275446
989.15	0.028042
989.284	0.0288503
989.418	0.0281042
989.552	0.0277311
989.686	0.0274824
989.82	0.0292234
989.954	0.0288503
990.088	0.0282907
990.222	0.0276068
990.356	0.0281664
990.49	0.0281664
990.624	0.0281042
990.758	0.0286016
990.892	0.0272337
991.026	0.028726
991.16	0.0275446
991.294	0.0285395
991.427	0.0281042
991.561	0.0285395
991.695	0.0277933
991.829	0.0275446
991.963	0.0282907
992.097	0.0272959
992.231	0.0283529
992.365	0.0282286
992.499	0.0277933
992.633	0.0279177
992.767	0.0277933
992.901	0.0275446
993.035	0.0277311
993.169	0.0290369
993.303	0.0282286
993.437	0.0286016
993.571	0.028042
993.704	0.0281664
993.838	0.0283529
993.972	0.0286638
994.106	0.0275446
994.24	0.0282286
994.374	0.027669
994.508	0.0274824
994.642	0.0283529
994.776	0.0284151
994.91	0.0284151
995.044	0.0285395
995.178	0.0275446
995.312	0.0286638
995.446	0.0289125
995.58	0.0286638
995.714	0.0284151
995.847	0.0279177
995.981	0.0284151
996.115	0.028042
996.249	0.0293478
996.383	0.0287882
996.517	0.0275446
996.651	0.0271715
996.785	0.0273581
996.919	0.0276068
997.053	0.0283529
997.187	0.028726
997.321	0.0288503
997.455	0.0281664
997.589	0.0281042
997.722	0.0284151
997.856	0.0282907
997.99	0.0281664
998.124	0.0292234
998.258	0.0289747
998.392	0.0286016
998.526	0.0279799
998.66	0.0277933
998.794	0.0296586
998.928	0.0286638
999.062	0.0282286
999.196	0.0284773
999.33	0.026985
999.464	0.0287882
999.597	0.0284773
999.731	0.0279799
999.865	0.0272959
999.999	0.0277933
1000.13	0.0286638
1000.27	0.0279799
1000.4	0.0278555
1000.53	0.0277311
1000.67	0.0279799
1000.8	0.0286638
1000.94	0.0289747
1001.07	0.0281042
1001.2	0.0290369
1001.34	0.0279799
1001.47	0.0272959
1001.61	0.0281042
1001.74	0.0286016
1001.87	0.0283529
1002.01	0.0279177
1002.14	0.0283529
1002.28	0.0285395
1002.41	0.0279799
1002.54	0.0286638
1002.68	0.0277933
1002.81	0.0282286
1002.95	0.0279799
1003.08	0.0277933
1003.21	0.0285395
1003.35	0.0292234
1003.48	0.0282907
1003.61	0.0287882
1003.75	0.0279799
1003.88	0.0274824
1004.02	0.0285395
1004.15	0.0286638
1004.28	0.0282286
1004.42	0.0282286
1004.55	0.0283529
1004.69	0.0283529
1004.82	0.0276068
1004.95	0.0281042
1005.09	0.0279177
1005.22	0.0278555
1005.36	0.0285395
1005.49	0.0289125
1005.62	0.0283529
1005.76	0.0286016
1005.89	0.0285395
1006.03	0.0278555
1006.16	0.0281664
1006.29	0.028726
1006.43	0.028042
1006.56	0.0285395
1006.69	0.0286016
1006.83	0.0281042
1006.96	0.0286016
1007.1	0.0281664
1007.23	0.0283529
1007.36	0.0286638
1007.5	0.0279799
1007.63	0.028726
1007.77	0.0279799
1007.9	0.0293478
1008.03	0.0282286
1008.17	0.0279799
1008.3	0.0285395
1008.44	0.0282286
1008.57	0.0283529
1008.7	0.0281664
1008.84	0.0277933
1008.97	0.0276068
1009.1	0.0276068
1009.24	0.0277933
1009.37	0.0281664
1009.51	0.0288503
1009.64	0.0279177
1009.77	0.0277933
1009.91	0.0286016
1010.04	0.0286638
1010.18	0.0286638
1010.31	0.0281664
1010.44	0.0282286
1010.58	0.0279177
1010.71	0.0274203
1010.85	0.0285395
1010.98	0.0281664
1011.11	0.0282286
1011.25	0.0281664
1011.38	0.0283529
1011.51	0.0282286
1011.65	0.0278555
1011.78	0.0277311
1011.92	0.028726
1012.05	0.0279799
1012.18	0.0281664
1012.32	0.0284151
1012.45	0.0279799
1012.59	0.0279799
1012.72	0.0277311
1012.85	0.0282907
1012.99	0.0281042
1013.12	0.0286638
1013.26	0.0282907
1013.39	0.0284151
1013.52	0.0282286
1013.66	0.0290369
1013.79	0.0282286
1013.92	0.028042
1014.06	0.0278555
1014.19	0.0278555
1014.33	0.0284773
1014.46	0.0287882
1014.59	0.0279799
1014.73	0.0278555
1014.86	0.0294099
1015	0.0272337
1015.13	0.0284151
1015.26	0.0286016
1015.4	0.0281664
1015.53	0.028726
1015.67	0.0285395
1015.8	0.0283529
1015.93	0.0282907
1016.07	0.027669
1016.2	0.0271094
1016.33	0.0277311
1016.47	0.028042
1016.6	0.0286016
1016.74	0.028726
1016.87	0.0279799
1017	0.027669
1017.14	0.027669
1017.27	0.0277311
1017.41	0.0283529
1017.54	0.0281664
1017.67	0.0278555
1017.81	0.0279177
1017.94	0.0286638
1018.07	0.0281664
1018.21	0.0281042
1018.34	0.0279799
1018.48	0.0278555
1018.61	0.0286016
1018.74	0.0282907
1018.88	0.028042
1019.01	0.0279799
1019.15	0.028042
1019.28	0.028726
1019.41	0.0281664
1019.55	0.0263632
1019.68	0.0282286
1019.82	0.028042
1019.95	0.027669
1020.08	0.0286638
1020.22	0.0281042
1020.35	0.0287882
1020.48	0.0276068
1020.62	0.0281042
1020.75	0.0281042
1020.89	0.0284773
1021.02	0.0277311
1021.15	0.028042
1021.29	0.0284151
1021.42	0.027669
1021.56	0.0285395
1021.69	0.0277933
1021.82	0.029099
1021.96	0.0282907
1022.09	0.0282907
1022.22	0.0281664
1022.36	0.0286016
1022.49	0.0286016
1022.63	0.028726
1022.76	0.0285395
1022.89	0.0279799
1023.03	0.0281664
1023.16	0.0281042
1023.3	0.0281664
1023.43	0.0279799
1023.56	0.0284151
1023.7	0.0275446
1023.83	0.0286016
1023.96	0.0286638
1024.1	0.0277311
1024.23	0.0277311
1024.37	0.0279799
1024.5	0.0282286
1024.63	0.0281664
1024.77	0.0279799
1024.9	0.028726
1025.04	0.0274824
1025.17	0.0294099
1025.3	0.0277311
1025.44	0.0286016
1025.57	0.028726
1025.7	0.0286016
1025.84	0.0277311
1025.97	0.0284151
1026.11	0.0277933
1026.24	0.0288503
1026.37	0.0284773
1026.51	0.0286638
1026.64	0.0279177
1026.78	0.0279177
1026.91	0.0282907
1027.04	0.0279177
1027.18	0.0274824
1027.31	0.0286638
1027.44	0.0282286
1027.58	0.0285395
1027.71	0.0281664
1027.85	0.0279799
1027.98	0.0281042
1028.11	0.0277311
1028.25	0.027669
1028.38	0.0275446
1028.52	0.0287882
1028.65	0.0277933
1028.78	0.0288503
1028.92	0.0284773
1029.05	0.0276068
1029.18	0.029099
1029.32	0.0286016
1029.45	0.0277311
1029.59	0.0287882
1029.72	0.0291612
1029.85	0.0281042
1029.99	0.0282286
1030.12	0.0286016
1030.26	0.0275446
1030.39	0.0279799
1030.52	0.0278555
1030.66	0.0284773
1030.79	0.0278555
1030.92	0.0279177
1031.06	0.0279177
1031.19	0.0287882
1031.33	0.0282286
1031.46	0.0283529
1031.59	0.0276068
1031.73	0.0287882
1031.86	0.0284773
1031.99	0.0283529
1032.13	0.0282286
1032.26	0.0279177
1032.4	0.0282286
1032.53	0.0288503
1032.66	0.0292856
1032.8	0.0282907
1032.93	0.0285395
1033.07	0.0286016
1033.2	0.0286638
1033.33	0.0281042
1033.47	0.0281664
1033.6	0.0277933
1033.73	0.0283529
1033.87	0.0275446
1034	0.0277933
1034.14	0.0288503
1034.27	0.0286638
1034.4	0.0275446
1034.54	0.0282907
1034.67	0.0283529
1034.81	0.0277311
1034.94	0.0281664
1035.07	0.0274203
1035.21	0.0287882
1035.34	0.027669
1035.47	0.028042
1035.61	0.0286638
1035.74	0.0292234
1035.88	0.0282286
1036.01	0.0271094
1036.14	0.0284151
1036.28	0.028042
1036.41	0.0288503
1036.54	0.0284151
1036.68	0.0281664
1036.81	0.0282286
1036.95	0.0286016
1037.08	0.0285395
1037.21	0.0281042
1037.35	0.0281042
1037.48	0.0272959
1037.62	0.0279177
1037.75	0.0286638
1037.88	0.0281664
1038.02	0.0271715
1038.15	0.0290369
1038.28	0.0278555
1038.42	0.0276068
1038.55	0.0282286
1038.69	0.028726
1038.82	0.0283529
1038.95	0.0281664
1039.09	0.0274203
1039.22	0.0279177
1039.35	0.0286016
1039.49	0.0283529
1039.62	0.0276068
1039.76	0.0282286
1039.89	0.0281042
1040.02	0.0281042
1040.16	0.0279799
1040.29	0.0273581
1040.43	0.0281042
1040.56	0.027669
1040.69	0.0272337
1040.83	0.0276068
1040.96	0.0285395
1041.09	0.0289125
1041.23	0.0286016
1041.36	0.0281042
1041.5	0.0278555
1041.63	0.0271715
1041.76	0.0283529
1041.9	0.0282286
1042.03	0.0288503
1042.16	0.0285395
1042.3	0.0284773
1042.43	0.0274203
1042.57	0.0282286
1042.7	0.0278555
1042.83	0.028042
1042.97	0.027669
1043.1	0.0284151
1043.23	0.0281042
1043.37	0.0289747
1043.5	0.0284151
1043.64	0.0287882
1043.77	0.0287882
1043.9	0.0286016
1044.04	0.0283529
1044.17	0.0282286
1044.31	0.0283529
1044.44	0.0279799
1044.57	0.0279177
1044.71	0.0289125
1044.84	0.027669
1044.97	0.0282907
1045.11	0.0283529
1045.24	0.0279177
1045.38	0.0282286
1045.51	0.0284773
1045.64	0.0282286
1045.78	0.0283529
1045.91	0.0286016
1046.04	0.028726
1046.18	0.0279799
1046.31	0.0279177
1046.45	0.0292234
1046.58	0.0273581
1046.71	0.0279799
1046.85	0.028726
1046.98	0.0288503
1047.11	0.028042
1047.25	0.0282907
1047.38	0.0274203
1047.52	0.0284151
1047.65	0.0277311
1047.78	0.0285395
1047.92	0.0282907
1048.05	0.0274203
1048.18	0.0284773
1048.32	0.027669
1048.45	0.0286016
1048.59	0.0284773
1048.72	0.0282907
1048.85	0.0281664
1048.99	0.0277933
1049.12	0.0281042
1049.25	0.0277933
1049.39	0.0279799
1049.52	0.0284773
1049.66	0.0285395
1049.79	0.0286016
1049.92	0.0285395
1050.06	0.0279799
1050.19	0.0278555
1050.33	0.0282907
1050.46	0.0284151
1050.59	0.0281664
1050.73	0.0282286
1050.86	0.0278555
1050.99	0.0278555
1051.13	0.0277933
1051.26	0.0290369
1051.4	0.028042
1051.53	0.0282286
1051.66	0.0278555
1051.8	0.0277311
1051.93	0.0274824
1052.06	0.0282907
1052.2	0.0282907
1052.33	0.028042
1052.47	0.0272959
1052.6	0.028042
1052.73	0.0279799
1052.87	0.0276068
1053	0.028042
1053.13	0.0296586
1053.27	0.0278555
1053.4	0.027669
1053.54	0.0282907
1053.67	0.0282286
1053.8	0.0275446
1053.94	0.0282907
1054.07	0.0283529
1054.2	0.028726
1054.34	0.0287882
1054.47	0.0279799
1054.61	0.0284151
1054.74	0.028726
1054.87	0.0274824
1055.01	0.0282286
1055.14	0.0279799
1055.27	0.0286638
1055.41	0.0279799
1055.54	0.0286638
1055.68	0.0285395
1055.81	0.0277933
1055.94	0.0277311
1056.08	0.0278555
1056.21	0.0277311
1056.34	0.0287882
1056.48	0.0270472
1056.61	0.0271715
1056.75	0.0287882
1056.88	0.0282286
1057.01	0.0281664
1057.15	0.0282286
1057.28	0.0285395
1057.41	0.0284773
1057.55	0.0282286
1057.68	0.0282907
1057.82	0.0278555
1057.95	0.0284151
1058.08	0.0282907
1058.22	0.0281042
1058.35	0.027669
1058.48	0.0282907
1058.62	0.0286638
1058.75	0.0283529
1058.89	0.0279177
1059.02	0.027669
1059.15	0.0285395
1059.29	0.026985
1059.42	0.0276068
1059.55	0.0277933
1059.69	0.0277933
1059.82	0.027669
1059.96	0.0290369
1060.09	0.0284151
1060.22	0.0277933
1060.36	0.0282907
1060.49	0.0279177
1060.62	0.0284773
1060.76	0.0282286
1060.89	0.0284773
1061.03	0.028726
1061.16	0.0281664
1061.29	0.0284151
1061.43	0.0282907
1061.56	0.0274824
1061.69	0.0281042
1061.83	0.0282286
1061.96	0.0270472
1062.1	0.0286638
1062.23	0.0284773
1062.36	0.0282907
1062.5	0.0286016
1062.63	0.0281042
1062.76	0.0284151
1062.9	0.0283529
1063.03	0.0277311
1063.17	0.0282907
1063.3	0.028042
1063.43	0.0284773
1063.57	0.0283529
1063.7	0.0286016
1063.83	0.0282286
1063.97	0.0277933
1064.1	0.0282286
1064.23	0.0287882
1064.37	0.027669
1064.5	0.0286638
1064.64	0.0267363
1064.77	0.0282907
1064.9	0.028726
1065.04	0.026985
1065.17	0.0289747
1065.3	0.0281664
1065.44	0.0281664
1065.57	0.0278555
1065.71	0.0284773
1065.84	0.0279799
1065.97	0.0282286
1066.11	0.0285395
1066.24	0.0279799
1066.37	0.0278555
1066.51	0.029099
1066.64	0.0278555
1066.78	0.0288503
1066.91	0.027669
1067.04	0.0277933
1067.18	0.0284151
1067.31	0.0287882
1067.44	0.027669
1067.58	0.0284773
1067.71	0.028042
1067.85	0.0279799
1067.98	0.0282907
1068.11	0.0282907
1068.25	0.0279799
1068.38	0.0279177
1068.51	0.0282286
1068.65	0.0286638
1068.78	0.0285395
1068.92	0.0292856
1069.05	0.0289125
1069.18	0.0291612
1069.32	0.0283529
1069.45	0.028042
1069.58	0.0277311
1069.72	0.0288503
1069.85	0.0284151
1069.98	0.0283529
1070.12	0.0286638
1070.25	0.0279799
1070.39	0.0277933
1070.52	0.0284151
1070.65	0.0279799
1070.79	0.0272337
1070.92	0.0281664
1071.05	0.028042
1071.19	0.0284151
1071.32	0.0265498
1071.46	0.029099
1071.59	0.0286638
1071.72	0.0286016
1071.86	0.0273581
1071.99	0.0274824
1072.12	0.0279799
1072.26	0.0281042
1072.39	0.0274824
1072.53	0.0281042
1072.66	0.0284773
1072.79	0.0289125
1072.93	0.028726
1073.06	0.0282907
1073.19	0.028042
1073.33	0.0282286
1073.46	0.0284773
1073.59	0.0277933
1073.73	0.0284773
1073.86	0.0275446
1074	0.0290369
1074.13	0.0272337
1074.26	0.0282907
1074.4	0.028042
1074.53	0.0289125
1074.66	0.0276068
1074.8	0.0275446
1074.93	0.0281664
1075.07	0.0284773
1075.2	0.0284151
1075.33	0.0283529
1075.47	0.026985
1075.6	0.0277311
1075.73	0.028726
1075.87	0.0285395
1076	0.0282286
1076.14	0.0281042
1076.27	0.0277933
1076.4	0.0281664
1076.54	0.0279799
1076.67	0.0281042
1076.8	0.028042
1076.94	0.0285395
1077.07	0.0274203
1077.2	0.0277933
1077.34	0.0286016
1077.47	0.0279177
1077.61	0.0279799
1077.74	0.0282907
1077.87	0.0274203
1078.01	0.0282907
1078.14	0.0289125
1078.27	0.0278555
1078.41	0.0281042
1078.54	0.029099
1078.68	0.0281664
1078.81	0.0282286
1078.94	0.0285395
1079.08	0.0276068
1079.21	0.0277311
1079.34	0.0285395
1079.48	0.0289125
1079.61	0.0290369
1079.74	0.0284151
1079.88	0.0281664
1080.01	0.0288503
1080.15	0.0284151
1080.28	0.0282907
1080.41	0.0284773
1080.55	0.0277933
1080.68	0.0285395
1080.81	0.0282286
1080.95	0.0279177
1081.08	0.0275446
1081.22	0.0281664
1081.35	0.0292856
1081.48	0.0284151
1081.62	0.0286016
1081.75	0.0292234
1081.88	0.028726
1082.02	0.0278555
1082.15	0.0277311
1082.28	0.0283529
1082.42	0.0272337
1082.55	0.0279177
1082.69	0.0279177
1082.82	0.028042
1082.95	0.0281664
1083.09	0.0270472
1083.22	0.027669
1083.35	0.0279799
1083.49	0.0292234
1083.62	0.0282286
1083.75	0.028042
1083.89	0.0281042
1084.02	0.0286016
1084.16	0.0291612
1084.29	0.028726
1084.42	0.028042
1084.56	0.0283529
1084.69	0.0284151
1084.82	0.0279799
1084.96	0.0276068
1085.09	0.0282286
1085.23	0.0281042
1085.36	0.0274824
1085.49	0.0288503
1085.63	0.0282907
1085.76	0.0281042
1085.89	0.028042
1086.03	0.0287882
1086.16	0.0284773
1086.29	0.0281664
1086.43	0.0284151
1086.56	0.0285395
1086.7	0.028726
1086.83	0.0284151
1086.96	0.0287882
1087.1	0.0287882
1087.23	0.0279799
1087.36	0.0289125
1087.5	0.0284773
1087.63	0.0279799
1087.76	0.0293478
1087.9	0.0283529
1088.03	0.0287882
1088.17	0.0289747
1088.3	0.0281664
1088.43	0.0284151
1088.57	0.0289125
1088.7	0.0270472
1088.83	0.0281042
1088.97	0.0286638
1089.1	0.0277933
1089.24	0.0282907
1089.37	0.027669
1089.5	0.0287882
1089.64	0.0281664
1089.77	0.0282286
1089.9	0.0277933
1090.04	0.0278555
1090.17	0.0284151
1090.3	0.0286016
1090.44	0.0281042
1090.57	0.0286016
1090.71	0.027669
1090.84	0.0284151
1090.97	0.028726
1091.11	0.0290369
1091.24	0.0279799
1091.37	0.0273581
1091.51	0.0284151
1091.64	0.0278555
1091.77	0.0279799
1091.91	0.0279799
1092.04	0.0287882
1092.18	0.0282907
1092.31	0.0277933
1092.44	0.0281042
1092.58	0.0277311
1092.71	0.0285395
1092.84	0.0282286
1092.98	0.0279799
1093.11	0.0274203
1093.24	0.0289125
1093.38	0.0287882
1093.51	0.0284151
1093.65	0.0274203
1093.78	0.028726
1093.91	0.0278555
1094.05	0.0286638
1094.18	0.027669
1094.31	0.0283529
1094.45	0.0289125
1094.58	0.0286638
1094.71	0.0275446
1094.85	0.0281664
1094.98	0.0275446
1095.12	0.027669
1095.25	0.0284773
1095.38	0.0275446
1095.52	0.0289747
1095.65	0.028042
1095.78	0.0277933
1095.92	0.0277311
1096.05	0.027669
1096.18	0.0277311
1096.32	0.0282286
1096.45	0.0277311
1096.59	0.0282907
1096.72	0.0291612
1096.85	0.0282286
1096.99	0.0279799
1097.12	0.027669
1097.25	0.0286638
1097.39	0.0290369
1097.52	0.0282286
1097.65	0.0285395
1097.79	0.0282907
1097.92	0.0286638
1098.06	0.0284151
1098.19	0.0279177
1098.32	0.0281042
1098.46	0.0286016
1098.59	0.0290369
1098.72	0.0285395
1098.86	0.0282286
1098.99	0.0274203
1099.12	0.0287882
1099.26	0.0277933
1099.39	0.0278555
1099.53	0.0290369
1099.66	0.0281664
1099.79	0.0289125
1099.93	0.0275446
1100.06	0.0281664
1100.19	0.0287882
1100.33	0.0279799
1100.46	0.0283529
1100.59	0.0277933
1100.73	0.0287882
1100.86	0.028042
1100.99	0.0290369
1101.13	0.0279799
1101.26	0.0287882
1101.4	0.0285395
1101.53	0.0283529
1101.66	0.0273581
1101.8	0.0282907
1101.93	0.0279177
1102.06	0.0282286
1102.2	0.0281664
1102.33	0.0289747
1102.46	0.0286638
1102.6	0.0285395
1102.73	0.0287882
1102.87	0.0283529
1103	0.0286016
1103.13	0.0285395
1103.27	0.0284151
1103.4	0.0278555
1103.53	0.027669
1103.67	0.0284151
1103.8	0.0282286
1103.93	0.0278555
1104.07	0.0284773
1104.2	0.0282907
1104.34	0.0277933
1104.47	0.0289125
1104.6	0.0282286
1104.74	0.0275446
1104.87	0.0278555
1105	0.0282286
1105.14	0.027669
1105.27	0.0284773
1105.4	0.0281664
1105.54	0.0282286
1105.67	0.026985
1105.8	0.0284773
1105.94	0.0286016
1106.07	0.0286638
1106.21	0.0284773
1106.34	0.0277933
1106.47	0.028042
1106.61	0.0282907
1106.74	0.0282286
1106.87	0.0279799
1107.01	0.0283529
1107.14	0.0285395
1107.27	0.0279799
1107.41	0.0296586
1107.54	0.0282286

