Source: Spectrum Viewer

Chart: Pulse Spectrum

Series: 
Wavelength (nm)	S (a.u.)
617.638	0.0288007
617.773	0.027681
617.908	0.027992
618.043	0.0284275
618.178	0.0288007
618.313	0.0274322
618.448	0.0284897
618.583	0.0278054
618.718	0.0279298
618.853	0.0279298
618.988	0.0288007
619.123	0.0284275
619.258	0.0281164
619.394	0.0281787
619.529	0.0277432
619.664	0.0284275
619.799	0.0279298
619.934	0.0274322
620.069	0.0287385
620.204	0.0274322
620.339	0.0284275
620.474	0.0291739
620.609	0.0279298
620.744	0.0283031
620.879	0.0281164
621.014	0.0284897
621.149	0.0275566
621.284	0.0284275
621.419	0.0283653
621.554	0.0282409
621.689	0.0283653
621.825	0.0281164
621.96	0.0283031
622.095	0.0277432
622.23	0.027992
622.365	0.0288007
622.5	0.0284897
622.635	0.0281787
622.77	0.0283653
622.905	0.0280542
623.04	0.0282409
623.175	0.0282409
623.31	0.0280542
623.445	0.0283031
623.58	0.0282409
623.715	0.0278054
623.85	0.0281787
623.985	0.0278676
624.12	0.0280542
624.255	0.0278676
624.39	0.0284897
624.525	0.0288007
624.661	0.0281164
624.796	0.0285519
624.931	0.0278054
625.066	0.0285519
625.201	0.0286141
625.336	0.0280542
625.471	0.0290495
625.606	0.0274322
625.741	0.0281164
625.876	0.0280542
626.011	0.0277432
626.146	0.0292361
626.281	0.027992
626.416	0.0281787
626.551	0.027681
626.686	0.0280542
626.821	0.0281787
626.956	0.0277432
627.091	0.0278676
627.226	0.0278676
627.361	0.0290495
627.496	0.027992
627.631	0.0289251
627.766	0.0278054
627.901	0.0281164
628.036	0.0279298
628.171	0.0287385
628.307	0.0281164
628.442	0.0285519
628.577	0.0277432
628.712	0.0278054
628.847	0.0284897
628.982	0.0283031
629.117	0.0284275
629.252	0.0275566
629.387	0.0281164
629.522	0.027681
629.657	0.0287385
629.792	0.0279298
629.927	0.0284275
630.062	0.0282409
630.197	0.0284275
630.332	0.0279298
630.467	0.0283031
630.602	0.0285519
630.737	0.0283031
630.872	0.0282409
631.007	0.0293605
631.142	0.0288007
631.277	0.0273078
631.412	0.0284897
631.547	0.0283653
631.682	0.0285519
631.817	0.027681
631.952	0.0284897
632.087	0.0285519
632.222	0.0279298
632.357	0.0278054
632.492	0.0273078
632.627	0.0280542
632.762	0.0281164
632.897	0.0279298
633.032	0.0278676
633.167	0.0284897
633.302	0.0284897
633.437	0.0284275
633.572	0.0287385
633.707	0.0283031
633.842	0.0283653
633.978	0.0288007
634.113	0.0276188
634.248	0.0278054
634.383	0.0280542
634.518	0.0280542
634.653	0.0288007
634.788	0.0289251
634.923	0.0286141
635.058	0.0287385
635.193	0.027992
635.328	0.0273078
635.463	0.027992
635.598	0.0283653
635.733	0.0286141
635.868	0.0289873
636.003	0.0288007
636.138	0.0281164
636.273	0.0286763
636.408	0.0280542
636.543	0.027992
636.678	0.0282409
636.813	0.0286763
636.948	0.0283031
637.083	0.0281787
637.218	0.0276188
637.353	0.0289251
637.488	0.0281164
637.623	0.0279298
637.758	0.0290495
637.893	0.0289251
638.028	0.0274944
638.163	0.027992
638.298	0.0280542
638.433	0.0282409
638.568	0.0278054
638.703	0.0286763
638.838	0.0282409
638.973	0.027681
639.108	0.0282409
639.243	0.0280542
639.378	0.0285519
639.513	0.0275566
639.648	0.0291117
639.783	0.0278676
639.918	0.0280542
640.053	0.027681
640.188	0.0278054
640.323	0.0283031
640.458	0.0284275
640.593	0.0277432
640.728	0.0281164
640.863	0.0280542
640.998	0.0278676
641.133	0.0295472
641.268	0.0279298
641.403	0.0282409
641.538	0.0289873
641.673	0.0290495
641.808	0.0283031
641.943	0.0277432
642.078	0.0281787
642.213	0.0281164
642.348	0.0290495
642.483	0.0282409
642.618	0.0291739
642.753	0.0283031
642.888	0.027992
643.023	0.0282409
643.158	0.0283031
643.293	0.0284275
643.428	0.0284897
643.563	0.027681
643.698	0.0279298
643.833	0.0283653
643.968	0.0276188
644.103	0.0279298
644.237	0.0285519
644.372	0.0288007
644.507	0.0285519
644.642	0.0281787
644.777	0.0284897
644.912	0.0281787
645.047	0.0277432
645.182	0.0286763
645.317	0.027681
645.452	0.0287385
645.587	0.027992
645.722	0.0284275
645.857	0.0278054
645.992	0.0279298
646.127	0.0276188
646.262	0.0275566
646.397	0.0280542
646.532	0.0281164
646.667	0.0282409
646.802	0.0278676
646.937	0.0286763
647.072	0.0284275
647.207	0.0282409
647.342	0.0275566
647.477	0.0274944
647.612	0.0286141
647.747	0.0285519
647.882	0.02737
648.017	0.0286763
648.152	0.0281164
648.287	0.0288629
648.422	0.0283653
648.557	0.0283031
648.692	0.0278676
648.827	0.027059
648.962	0.0278054
649.097	0.0281787
649.232	0.0282409
649.367	0.027681
649.502	0.0280542
649.637	0.0288629
649.772	0.0283653
649.906	0.0278676
650.041	0.0292983
650.176	0.0280542
650.311	0.0284275
650.446	0.0283031
650.581	0.0283653
650.716	0.0281164
650.851	0.0285519
650.986	0.0275566
651.121	0.0286763
651.256	0.0276188
651.391	0.0282409
651.526	0.0275566
651.661	0.0281164
651.796	0.0288629
651.931	0.0292361
652.066	0.0297338
652.201	0.0289873
652.336	0.0281787
652.471	0.0273078
652.606	0.0282409
652.741	0.0282409
652.876	0.0282409
653.011	0.0275566
653.146	0.0272456
653.281	0.0278054
653.415	0.0284275
653.55	0.0281164
653.685	0.02737
653.82	0.0288629
653.955	0.0283031
654.09	0.0288007
654.225	0.0278054
654.36	0.0284275
654.495	0.0281164
654.63	0.0291739
654.765	0.0289873
654.9	0.027681
655.035	0.0281164
655.17	0.0287385
655.305	0.0278054
655.44	0.0292361
655.575	0.027681
655.71	0.0287385
655.845	0.0284897
655.98	0.0288629
656.115	0.0278054
656.25	0.0279298
656.384	0.0284275
656.519	0.0296716
656.654	0.0281787
656.789	0.0288629
656.924	0.0280542
657.059	0.0280542
657.194	0.0281164
657.329	0.0281787
657.464	0.0290495
657.599	0.0278054
657.734	0.0283031
657.869	0.0274322
658.004	0.0283031
658.139	0.0278676
658.274	0.0277432
658.409	0.027681
658.544	0.0274322
658.679	0.0278676
658.813	0.0283031
658.948	0.0279298
659.083	0.0277432
659.218	0.0285519
659.353	0.027992
659.488	0.027992
659.623	0.0280542
659.758	0.0284275
659.893	0.0289873
660.028	0.0274944
660.163	0.0277432
660.298	0.0295472
660.433	0.0274944
660.568	0.0292983
660.703	0.0272456
660.838	0.0283653
660.972	0.0283031
661.107	0.0284897
661.242	0.0285519
661.377	0.0288007
661.512	0.0273078
661.647	0.0278054
661.782	0.0286763
661.917	0.0284275
662.052	0.0284275
662.187	0.0286763
662.322	0.0284275
662.457	0.0274944
662.592	0.0286763
662.727	0.0281787
662.862	0.0281787
662.996	0.0279298
663.131	0.0279298
663.266	0.0289873
663.401	0.0284897
663.536	0.0285519
663.671	0.0284897
663.806	0.0286141
663.941	0.0280542
664.076	0.027992
664.211	0.0285519
664.346	0.0285519
664.481	0.0278676
664.616	0.0284275
664.75	0.0283653
664.885	0.0285519
665.02	0.0283031
665.155	0.0286763
665.29	0.027681
665.425	0.0282409
665.56	0.027992
665.695	0.0287385
665.83	0.0281787
665.965	0.0279298
666.1	0.0283031
666.235	0.0281164
666.37	0.0282409
666.504	0.0271212
666.639	0.0284897
666.774	0.0284897
666.909	0.0283031
667.044	0.0289251
667.179	0.0281164
667.314	0.0281164
667.449	0.0284275
667.584	0.0278054
667.719	0.0282409
667.854	0.0287385
667.989	0.0283031
668.123	0.0284897
668.258	0.0284897
668.393	0.0283031
668.528	0.0281164
668.663	0.0287385
668.798	0.0286763
668.933	0.0291117
669.068	0.0280542
669.203	0.0269968
669.338	0.0286141
669.473	0.02737
669.607	0.0274322
669.742	0.0280542
669.877	0.0278054
670.012	0.0289251
670.147	0.0288007
670.282	0.027992
670.417	0.0278054
670.552	0.0284275
670.687	0.0282409
670.822	0.0278054
670.957	0.027681
671.091	0.0286763
671.226	0.0283653
671.361	0.0283031
671.496	0.0284275
671.631	0.0276188
671.766	0.0279298
671.901	0.0282409
672.036	0.0281787
672.171	0.0276188
672.306	0.0281787
672.44	0.0283653
672.575	0.0281787
672.71	0.0284275
672.845	0.0273078
672.98	0.0288007
673.115	0.0285519
673.25	0.0283031
673.385	0.0283031
673.52	0.0278054
673.655	0.0281787
673.789	0.0284897
673.924	0.0281164
674.059	0.0285519
674.194	0.0285519
674.329	0.0284897
674.464	0.0273078
674.599	0.0283031
674.734	0.0284897
674.869	0.027992
675.003	0.0286141
675.138	0.0288007
675.273	0.0285519
675.408	0.0283653
675.543	0.0288629
675.678	0.0286141
675.813	0.0278676
675.948	0.0282409
676.083	0.0284897
676.217	0.0284275
676.352	0.02737
676.487	0.0281164
676.622	0.0284897
676.757	0.0278676
676.892	0.0272456
677.027	0.0272456
677.162	0.0281787
677.297	0.0284275
677.431	0.0282409
677.566	0.0284897
677.701	0.0284275
677.836	0.0276188
677.971	0.0280542
678.106	0.0274322
678.241	0.0280542
678.376	0.0292983
678.511	0.0273078
678.645	0.0284275
678.78	0.0279298
678.915	0.0287385
679.05	0.0284275
679.185	0.0286763
679.32	0.0274944
679.455	0.0286763
679.59	0.0285519
679.724	0.0290495
679.859	0.0284897
679.994	0.0288629
680.129	0.0283031
680.264	0.0282409
680.399	0.0271834
680.534	0.0284897
680.669	0.0275566
680.803	0.0285519
680.938	0.0278676
681.073	0.0290495
681.208	0.0285519
681.343	0.0273078
681.478	0.0279298
681.613	0.027992
681.748	0.0284897
681.882	0.0281164
682.017	0.0282409
682.152	0.0280542
682.287	0.0277432
682.422	0.0286763
682.557	0.0280542
682.692	0.0287385
682.827	0.0284897
682.961	0.0285519
683.096	0.0287385
683.231	0.0280542
683.366	0.0274944
683.501	0.0288007
683.636	0.0283031
683.771	0.0286141
683.906	0.027992
684.04	0.0286141
684.175	0.0281164
684.31	0.0280542
684.445	0.0278676
684.58	0.0278676
684.715	0.027992
684.85	0.0291739
684.984	0.0279298
685.119	0.0281787
685.254	0.0281164
685.389	0.0280542
685.524	0.0284897
685.659	0.0287385
685.794	0.0274322
685.928	0.0284897
686.063	0.0275566
686.198	0.0284275
686.333	0.0281164
686.468	0.0285519
686.603	0.0286141
686.738	0.0275566
686.872	0.0279298
687.007	0.0277432
687.142	0.0285519
687.277	0.0288007
687.412	0.0281164
687.547	0.0280542
687.682	0.0275566
687.816	0.0274944
687.951	0.0284897
688.086	0.0288007
688.221	0.0281164
688.356	0.0275566
688.491	0.0274322
688.626	0.0288629
688.76	0.0283031
688.895	0.0278676
689.03	0.0277432
689.165	0.0290495
689.3	0.0278054
689.435	0.0278054
689.57	0.0282409
689.704	0.0281164
689.839	0.0274944
689.974	0.027992
690.109	0.0277432
690.244	0.0285519
690.379	0.0284897
690.513	0.0284275
690.648	0.0273078
690.783	0.0278676
690.918	0.0283031
691.053	0.0289873
691.188	0.0274944
691.323	0.0279298
691.457	0.0291739
691.592	0.0275566
691.727	0.0267479
691.862	0.0273078
691.997	0.0286763
692.132	0.0285519
692.266	0.0288007
692.401	0.0282409
692.536	0.0283653
692.671	0.0283653
692.806	0.0289873
692.941	0.0278676
693.075	0.0278676
693.21	0.0286141
693.345	0.0286763
693.48	0.027992
693.615	0.0278676
693.75	0.0290495
693.885	0.0283653
694.019	0.0289251
694.154	0.0287385
694.289	0.0289251
694.424	0.0284275
694.559	0.0288629
694.694	0.0284897
694.828	0.0287385
694.963	0.0284275
695.098	0.0277432
695.233	0.0292361
695.368	0.0288007
695.503	0.0275566
695.637	0.0279298
695.772	0.027992
695.907	0.0289251
696.042	0.0292361
696.177	0.029796
696.312	0.0281164
696.446	0.0281164
696.581	0.0291117
696.716	0.0278054
696.851	0.0277432
696.986	0.027992
697.12	0.0275566
697.255	0.0283653
697.39	0.0282409
697.525	0.0284275
697.66	0.0283031
697.795	0.0281787
697.929	0.0287385
698.064	0.0281787
698.199	0.0289251
698.334	0.0289251
698.469	0.0280542
698.604	0.0287385
698.738	0.0286141
698.873	0.0289873
699.008	0.0280542
699.143	0.0281164
699.278	0.0277432
699.412	0.0292361
699.547	0.0271834
699.682	0.0281164
699.817	0.0278676
699.952	0.0302314
700.087	0.0286763
700.221	0.0283653
700.356	0.0286763
700.491	0.0278054
700.626	0.027992
700.761	0.0278676
700.895	0.0281787
701.03	0.0274322
701.165	0.0284275
701.3	0.027992
701.435	0.0283653
701.57	0.0280542
701.704	0.0288007
701.839	0.0271834
701.974	0.0283031
702.109	0.0278054
702.244	0.0286141
702.378	0.0292983
702.513	0.0280542
702.648	0.0277432
702.783	0.0292361
702.918	0.0287385
703.052	0.0281164
703.187	0.0283031
703.322	0.0283031
703.457	0.0283031
703.592	0.0287385
703.727	0.0275566
703.861	0.0278676
703.996	0.0292983
704.131	0.0275566
704.266	0.0281164
704.401	0.0289873
704.535	0.0288629
704.67	0.0281164
704.805	0.0283031
704.94	0.0280542
705.075	0.0280542
705.209	0.0277432
705.344	0.0290495
705.479	0.02737
705.614	0.0284275
705.749	0.0285519
705.883	0.0278054
706.018	0.0280542
706.153	0.0277432
706.288	0.0281164
706.423	0.0283031
706.557	0.0277432
706.692	0.0281164
706.827	0.027992
706.962	0.0283653
707.097	0.027992
707.231	0.0277432
707.366	0.0288007
707.501	0.0282409
707.636	0.0283653
707.771	0.0282409
707.905	0.0280542
708.04	0.0281164
708.175	0.0284275
708.31	0.0284897
708.445	0.0281164
708.579	0.027992
708.714	0.027992
708.849	0.0287385
708.984	0.0285519
709.118	0.0283653
709.253	0.027681
709.388	0.0285519
709.523	0.0288007
709.658	0.0288007
709.792	0.0278054
709.927	0.0289251
710.062	0.0286763
710.197	0.0277432
710.332	0.0279298
710.466	0.0278054
710.601	0.0281164
710.736	0.0292361
710.871	0.0271212
711.006	0.0286763
711.14	0.0278676
711.275	0.0278676
711.41	0.0280542
711.545	0.0284897
711.679	0.0282409
711.814	0.0285519
711.949	0.0284275
712.084	0.0286141
712.219	0.0284275
712.353	0.0282409
712.488	0.0281164
712.623	0.0288007
712.758	0.0289251
712.892	0.0281787
713.027	0.0281164
713.162	0.0278054
713.297	0.0281787
713.432	0.0273078
713.566	0.0282409
713.701	0.0286141
713.836	0.0274944
713.971	0.0283031
714.105	0.0277432
714.24	0.0289251
714.375	0.0283031
714.51	0.0283653
714.645	0.0276188
714.779	0.0281164
714.914	0.0282409
715.049	0.0288007
715.184	0.0278676
715.318	0.0286763
715.453	0.0282409
715.588	0.0284897
715.723	0.0291117
715.858	0.0284275
715.992	0.0274944
716.127	0.0274944
716.262	0.0284275
716.397	0.0278676
716.531	0.0281787
716.666	0.0284897
716.801	0.0269968
716.936	0.0283031
717.07	0.0274944
717.205	0.0273078
717.34	0.0283653
717.475	0.0283031
717.61	0.0281787
717.744	0.0281164
717.879	0.0284275
718.014	0.02737
718.149	0.0280542
718.283	0.0286141
718.418	0.0283031
718.553	0.0281787
718.688	0.0286763
718.822	0.0281164
718.957	0.0282409
719.092	0.0277432
719.227	0.0281787
719.361	0.0281164
719.496	0.0273078
719.631	0.0284275
719.766	0.0275566
719.9	0.0273078
720.035	0.0283031
720.17	0.0288629
720.305	0.0284897
720.44	0.0285519
720.574	0.0281787
720.709	0.0280542
720.844	0.0287385
720.979	0.0292361
721.113	0.0280542
721.248	0.0289873
721.383	0.0269346
721.518	0.0277432
721.652	0.027059
721.787	0.0277432
721.922	0.0278054
722.057	0.0279298
722.191	0.0281787
722.326	0.0284275
722.461	0.0281164
722.596	0.0278054
722.73	0.0288629
722.865	0.0279298
723	0.027681
723.135	0.027681
723.269	0.0291117
723.404	0.0284897
723.539	0.0278676
723.674	0.0288007
723.808	0.0283031
723.943	0.0278676
724.078	0.0283653
724.213	0.0283653
724.347	0.0283031
724.482	0.02737
724.617	0.0292361
724.752	0.0279298
724.886	0.0275566
725.021	0.0283653
725.156	0.027681
725.291	0.0284897
725.425	0.0276188
725.56	0.0284897
725.695	0.0289873
725.829	0.0284897
725.964	0.0279298
726.099	0.0283653
726.234	0.0284275
726.368	0.0282409
726.503	0.0286141
726.638	0.0278676
726.773	0.0278676
726.907	0.0275566
727.042	0.0284275
727.177	0.0281787
727.312	0.0280542
727.446	0.0276188
727.581	0.0285519
727.716	0.0285519
727.851	0.0278676
727.985	0.0281787
728.12	0.0283031
728.255	0.0284275
728.389	0.0282409
728.524	0.027681
728.659	0.0274322
728.794	0.0281164
728.928	0.0283031
729.063	0.027681
729.198	0.0288629
729.333	0.0285519
729.467	0.027992
729.602	0.0280542
729.737	0.027681
729.872	0.0278676
730.006	0.0284275
730.141	0.0280542
730.276	0.0278054
730.41	0.0285519
730.545	0.0281164
730.68	0.0278054
730.815	0.0281787
730.949	0.0278054
731.084	0.0283653
731.219	0.0281787
731.354	0.0284897
731.488	0.0281787
731.623	0.0289251
731.758	0.0290495
731.892	0.0281164
732.027	0.0282409
732.162	0.0276188
732.297	0.0289251
732.431	0.0286141
732.566	0.0283653
732.701	0.0271212
732.835	0.0278676
732.97	0.0288629
733.105	0.0286763
733.24	0.0284275
733.374	0.0288629
733.509	0.027681
733.644	0.0283031
733.779	0.0284275
733.913	0.0279298
734.048	0.0272456
734.183	0.0288007
734.317	0.0278676
734.452	0.0271212
734.587	0.0281164
734.722	0.0280542
734.856	0.0278054
734.991	0.0277432
735.126	0.0277432
735.26	0.0281164
735.395	0.0284275
735.53	0.0273078
735.665	0.0284275
735.799	0.0289873
735.934	0.0282409
736.069	0.0284275
736.203	0.0281164
736.338	0.0282409
736.473	0.0284897
736.607	0.0289251
736.742	0.0290495
736.877	0.0279298
737.012	0.0285519
737.146	0.0277432
737.281	0.0281787
737.416	0.0283031
737.55	0.0283031
737.685	0.0274944
737.82	0.0281787
737.955	0.0279298
738.089	0.0283653
738.224	0.027992
738.359	0.0288629
738.493	0.0279298
738.628	0.0283653
738.763	0.027992
738.897	0.0271834
739.032	0.027992
739.167	0.0283653
739.302	0.0295472
739.436	0.0277432
739.571	0.0279298
739.706	0.0278054
739.84	0.0286141
739.975	0.0281164
740.11	0.0281787
740.244	0.0278054
740.379	0.0284897
740.514	0.0291739
740.649	0.0277432
740.783	0.0284897
740.918	0.0274944
741.053	0.0284897
741.187	0.0289873
741.322	0.0275566
741.457	0.0282409
741.591	0.0286141
741.726	0.0281787
741.861	0.027992
741.996	0.0284897
742.13	0.0269968
742.265	0.0286141
742.4	0.0274322
742.534	0.0280542
742.669	0.0280542
742.804	0.0287385
742.938	0.0279298
743.073	0.0281787
743.208	0.0283653
743.342	0.0281787
743.477	0.0283031
743.612	0.0289251
743.747	0.0277432
743.881	0.0272456
744.016	0.0282409
744.151	0.0278054
744.285	0.0273078
744.42	0.0286763
744.555	0.0283031
744.689	0.0275566
744.824	0.0278054
744.959	0.0284275
745.093	0.0274322
745.228	0.027992
745.363	0.0283653
745.497	0.027992
745.632	0.0284275
745.767	0.0292361
745.901	0.0287385
746.036	0.0283653
746.171	0.027992
746.305	0.02737
746.44	0.0278676
746.575	0.0281787
746.71	0.0278676
746.844	0.0291117
746.979	0.0281164
747.114	0.0278054
747.248	0.0283653
747.383	0.0277432
747.518	0.0287385
747.652	0.0279298
747.787	0.0275566
747.922	0.0278054
748.056	0.0283653
748.191	0.0289251
748.326	0.0280542
748.46	0.0279298
748.595	0.0291117
748.73	0.0288629
748.864	0.0284897
748.999	0.0285519
749.134	0.0281164
749.268	0.0283031
749.403	0.0287385
749.538	0.0288629
749.672	0.0274944
749.807	0.0283653
749.942	0.0286763
750.076	0.0281787
750.211	0.027681
750.346	0.0284897
750.48	0.0284275
750.615	0.0283031
750.75	0.0284897
750.884	0.027681
751.019	0.0277432
751.154	0.0280542
751.288	0.0278054
751.423	0.0286763
751.558	0.0284897
751.692	0.0289251
751.827	0.0287385
751.962	0.0280542
752.096	0.0286141
752.231	0.0283031
752.366	0.027992
752.5	0.0278054
752.635	0.0272456
752.77	0.0275566
752.904	0.0284275
753.039	0.027681
753.174	0.0282409
753.308	0.0288629
753.443	0.0284275
753.578	0.0283653
753.712	0.027059
753.847	0.0274944
753.982	0.0288629
754.116	0.0286141
754.251	0.0283653
754.386	0.0283031
754.52	0.0280542
754.655	0.0289251
754.79	0.027059
754.924	0.0286141
755.059	0.0281164
755.194	0.0288629
755.328	0.0288007
755.463	0.0278054
755.597	0.0273078
755.732	0.0283031
755.867	0.027992
756.001	0.0283653
756.136	0.0290495
756.271	0.0283031
756.405	0.0288629
756.54	0.0277432
756.675	0.0272456
756.809	0.0281787
756.944	0.0282409
757.079	0.0278676
757.213	0.0283031
757.348	0.0274944
757.483	0.0278054
757.617	0.0274944
757.752	0.0283653
757.887	0.0281787
758.021	0.0276188
758.156	0.0282409
758.29	0.027681
758.425	0.0289873
758.56	0.0290495
758.694	0.027992
758.829	0.0284897
758.964	0.0286141
759.098	0.0284897
759.233	0.0290495
759.368	0.0280542
759.502	0.0274944
759.637	0.0284897
759.772	0.0285519
759.906	0.0276188
760.041	0.0283031
760.175	0.0273078
760.31	0.0287385
760.445	0.0281787
760.579	0.0289251
760.714	0.0283653
760.849	0.0280542
760.983	0.0278676
761.118	0.0278676
761.253	0.0287385
761.387	0.0286763
761.522	0.0285519
761.656	0.0275566
761.791	0.0283653
761.926	0.0291117
762.06	0.0285519
762.195	0.0285519
762.33	0.0282409
762.464	0.0283031
762.599	0.0283031
762.733	0.0283653
762.868	0.0283031
763.003	0.0283653
763.137	0.0281787
763.272	0.0281787
763.407	0.0288629
763.541	0.0284897
763.676	0.0283031
763.811	0.0287385
763.945	0.0281787
764.08	0.027681
764.214	0.0289251
764.349	0.0281787
764.484	0.0288629
764.618	0.0279298
764.753	0.0271212
764.888	0.0272456
765.022	0.0289251
765.157	0.0278054
765.291	0.0279298
765.426	0.0289251
765.561	0.0280542
765.695	0.0283031
765.83	0.0282409
765.965	0.0284275
766.099	0.0280542
766.234	0.0274322
766.368	0.0283653
766.503	0.0285519
766.638	0.0286141
766.772	0.027992
766.907	0.0281164
767.041	0.0291117
767.176	0.0281164
767.311	0.0281787
767.445	0.0281787
767.58	0.0283031
767.715	0.0284897
767.849	0.0282409
767.984	0.0291117
768.118	0.0294227
768.253	0.027681
768.388	0.0276188
768.522	0.0284275
768.657	0.0287385
768.791	0.0292983
768.926	0.0278676
769.061	0.0274944
769.195	0.0292361
769.33	0.0289873
769.465	0.0284275
769.599	0.0278676
769.734	0.027992
769.868	0.0283031
770.003	0.0277432
770.138	0.0282409
770.272	0.0285519
770.407	0.0281787
770.541	0.0288629
770.676	0.02737
770.811	0.027681
770.945	0.0284275
771.08	0.0280542
771.214	0.0286763
771.349	0.0286141
771.484	0.0280542
771.618	0.0285519
771.753	0.0289251
771.887	0.027992
772.022	0.0289251
772.157	0.0282409
772.291	0.0283653
772.426	0.0280542
772.56	0.0285519
772.695	0.0283031
772.83	0.0282409
772.964	0.0285519
773.099	0.0286763
773.233	0.0286141
773.368	0.0280542
773.503	0.0283031
773.637	0.0276188
773.772	0.0284897
773.906	0.0288007
774.041	0.0285519
774.176	0.027992
774.31	0.0280542
774.445	0.0284897
774.579	0.0281164
774.714	0.0284897
774.849	0.0280542
774.983	0.0287385
775.118	0.0283653
775.252	0.0284897
775.387	0.0283031
775.522	0.027992
775.656	0.0281164
775.791	0.0288007
775.925	0.0283031
776.06	0.0283653
776.195	0.0271834
776.329	0.027992
776.464	0.0279298
776.598	0.0282409
776.733	0.0292361
776.868	0.0281787
777.002	0.0281164
777.137	0.0285519
777.271	0.0285519
777.406	0.0279298
777.54	0.0285519
777.675	0.0285519
777.81	0.0283653
777.944	0.0283653
778.079	0.0281787
778.213	0.0286141
778.348	0.0287385
778.483	0.0283653
778.617	0.0279298
778.752	0.0276188
778.886	0.0281787
779.021	0.0274944
779.155	0.0282409
779.29	0.0284897
779.425	0.0291739
779.559	0.0285519
779.694	0.0289873
779.828	0.0279298
779.963	0.0286763
780.098	0.0277432
780.232	0.0277432
780.367	0.0288007
780.501	0.0279298
780.636	0.0279298
780.77	0.0280542
780.905	0.027681
781.04	0.0278054
781.174	0.0283031
781.309	0.0291117
781.443	0.0282409
781.578	0.0288629
781.712	0.0275566
781.847	0.0289251
781.982	0.027992
782.116	0.0283653
782.251	0.0284897
782.385	0.0282409
782.52	0.0280542
782.654	0.027992
782.789	0.027992
782.924	0.027992
783.058	0.027992
783.193	0.0280542
783.327	0.0276188
783.462	0.0281787
783.596	0.0286141
783.731	0.0285519
783.866	0.0283653
784	0.027992
784.135	0.0288007
784.269	0.0285519
784.404	0.0292983
784.538	0.0274322
784.673	0.0278054
784.808	0.0284275
784.942	0.0281787
785.077	0.0281164
785.211	0.0275566
785.346	0.0292361
785.48	0.0286141
785.615	0.0284897
785.75	0.0274944
785.884	0.02737
786.019	0.027681
786.153	0.0282409
786.288	0.0291117
786.422	0.0294227
786.557	0.0274944
786.691	0.0286141
786.826	0.0282409
786.961	0.0288007
787.095	0.0292983
787.23	0.0281164
787.364	0.0276188
787.499	0.0284897
787.633	0.027681
787.768	0.0293605
787.902	0.0291117
788.037	0.0286141
788.172	0.0272456
788.306	0.0278054
788.441	0.0283031
788.575	0.0265613
788.71	0.0288007
788.844	0.0280542
788.979	0.0284275
789.113	0.0281787
789.248	0.027992
789.383	0.0279298
789.517	0.0277432
789.652	0.0281787
789.786	0.0286763
789.921	0.0286141
790.055	0.0283031
790.19	0.0277432
790.324	0.027681
790.459	0.0287385
790.594	0.0288629
790.728	0.0275566
790.863	0.0286763
790.997	0.027992
791.132	0.0279298
791.266	0.0283653
791.401	0.0287385
791.535	0.0281164
791.67	0.0278676
791.804	0.0272456
791.939	0.027992
792.074	0.027992
792.208	0.0278054
792.343	0.0288007
792.477	0.0283031
792.612	0.0277432
792.746	0.0286763
792.881	0.0281164
793.015	0.0277432
793.15	0.0283653
793.284	0.0284897
793.419	0.0281787
793.553	0.0280542
793.688	0.0279298
793.823	0.0282409
793.957	0.027992
794.092	0.0274322
794.226	0.0288629
794.361	0.0285519
794.495	0.0275566
794.63	0.0281787
794.764	0.0280542
794.899	0.0279298
795.033	0.0292361
795.168	0.0278054
795.302	0.0283653
795.437	0.0285519
795.572	0.0283653
795.706	0.0284275
795.841	0.0284897
795.975	0.0284275
796.11	0.0285519
796.244	0.0281787
796.379	0.0285519
796.513	0.0284897
796.648	0.0289251
796.782	0.0280542
796.917	0.0284275
797.051	0.0281787
797.186	0.0286763
797.32	0.0282409
797.455	0.0287385
797.589	0.0285519
797.724	0.0286141
797.859	0.0284897
797.993	0.0290495
798.128	0.0283653
798.262	0.0286763
798.397	0.0288007
798.531	0.0289251
798.666	0.0281787
798.8	0.0284275
798.935	0.0283031
799.069	0.0289251
799.204	0.0285519
799.338	0.0281787
799.473	0.0283031
799.607	0.027992
799.742	0.0297338
799.876	0.0289251
800.011	0.0289873
800.145	0.0284275
800.28	0.0284275
800.414	0.0283653
800.549	0.0284897
800.683	0.0286141
800.818	0.0291739
800.953	0.0280542
801.087	0.027992
801.222	0.0292983
801.356	0.0297338
801.491	0.0286141
801.625	0.0292361
801.76	0.0300448
801.894	0.0292361
802.029	0.0291117
802.163	0.0301692
802.298	0.0299204
802.432	0.0301692
802.567	0.0292983
802.701	0.0299826
802.836	0.0291117
802.97	0.0303558
803.105	0.0301692
803.239	0.0294849
803.374	0.0293605
803.508	0.0298582
803.643	0.030107
803.777	0.0310401
803.912	0.029796
804.046	0.0300448
804.181	0.0300448
804.315	0.0306046
804.45	0.0310401
804.584	0.0327818
804.719	0.0312889
804.853	0.0306046
804.988	0.0316621
805.122	0.0318487
805.257	0.0322842
805.391	0.0321597
805.526	0.0326574
805.66	0.0326574
805.795	0.0342747
805.929	0.0337771
806.064	0.0340259
806.198	0.03527
806.333	0.0362652
806.467	0.0355188
806.602	0.0384424
806.736	0.0383802
806.871	0.041055
807.005	0.0426101
807.14	0.0505723
807.274	0.073899
807.409	0.0829808
807.543	0.0681762
807.678	0.0620179
807.812	0.0700423
807.947	0.0842871
808.081	0.309157
808.216	0.625031
808.35	1
808.485	0.993033
808.619	0.982521
808.754	0.975554
808.888	0.895559
809.023	0.873289
809.157	0.997263
809.292	0.968213
809.426	0.978602
809.561	0.881065
809.695	0.3815
809.83	0.124658
809.964	0.104441
810.099	0.148793
810.233	0.457514
810.368	0.831986
810.502	0.67579
810.637	0.193083
810.771	0.051692
810.906	0.0396865
811.04	0.0363274
811.175	0.0359542
811.309	0.0341503
811.444	0.033466
811.578	0.033155
811.713	0.0324708
811.847	0.0322842
811.982	0.0305424
812.116	0.0306668
812.251	0.0314133
812.385	0.0309157
812.519	0.0315999
812.654	0.0312889
812.788	0.0307912
812.923	0.0309157
813.057	0.0301692
813.192	0.0317243
813.326	0.0311023
813.461	0.0295472
813.595	0.0299204
813.73	0.0291117
813.864	0.0291117
813.999	0.0292983
814.133	0.0303558
814.268	0.0291117
814.402	0.0294849
814.537	0.0291739
814.671	0.0286141
814.806	0.0296716
814.94	0.0289251
815.075	0.0294227
815.209	0.0291739
815.344	0.0291739
815.478	0.0289251
815.612	0.0285519
815.747	0.0291117
815.881	0.0284275
816.016	0.0284897
816.15	0.0282409
816.285	0.0289251
816.419	0.0281787
816.554	0.0280542
816.688	0.027992
816.823	0.0291117
816.957	0.0289251
817.092	0.0290495
817.226	0.030107
817.361	0.0294227
817.495	0.0286763
817.63	0.0283653
817.764	0.0290495
817.898	0.0293605
818.033	0.0285519
818.167	0.0277432
818.302	0.027992
818.436	0.0285519
818.571	0.0290495
818.705	0.027992
818.84	0.0287385
818.974	0.0289251
819.109	0.0280542
819.243	0.0279298
819.378	0.0287385
819.512	0.0283653
819.646	0.0292361
819.781	0.0287385
819.915	0.0287385
820.05	0.0284897
820.184	0.0283031
820.319	0.0281787
820.453	0.027681
820.588	0.0283031
820.722	0.0283653
820.857	0.0284897
820.991	0.027992
821.126	0.0281164
821.26	0.0287385
821.394	0.027992
821.529	0.027992
821.663	0.0282409
821.798	0.0278054
821.932	0.0293605
822.067	0.0279298
822.201	0.0281787
822.336	0.0289873
822.47	0.0286141
822.605	0.0281787
822.739	0.0279298
822.873	0.0281164
823.008	0.0281787
823.142	0.027992
823.277	0.0281164
823.411	0.0283653
823.546	0.0283031
823.68	0.0285519
823.815	0.0288007
823.949	0.0284897
824.083	0.0277432
824.218	0.0286141
824.352	0.0281164
824.487	0.0280542
824.621	0.0283653
824.756	0.0281164
824.89	0.0278054
825.025	0.027681
825.159	0.0284897
825.293	0.0273078
825.428	0.0284897
825.562	0.0282409
825.697	0.0279298
825.831	0.0277432
825.966	0.0285519
826.1	0.0292361
826.235	0.0284897
826.369	0.0289251
826.503	0.0276188
826.638	0.0278054
826.772	0.0278676
826.907	0.0283653
827.041	0.0285519
827.176	0.0288007
827.31	0.0282409
827.445	0.0278054
827.579	0.0272456
827.713	0.0271212
827.848	0.0281787
827.982	0.0274322
828.117	0.0287385
828.251	0.0286141
828.386	0.0278676
828.52	0.0281787
828.654	0.0274944
828.789	0.0288007
828.923	0.0281787
829.058	0.027992
829.192	0.0281164
829.327	0.0277432
829.461	0.0281787
829.596	0.0285519
829.73	0.0293605
829.864	0.0278676
829.999	0.027992
830.133	0.0292361
830.268	0.0282409
830.402	0.0278054
830.537	0.0288007
830.671	0.0281164
830.805	0.0288007
830.94	0.027992
831.074	0.0288629
831.209	0.0284897
831.343	0.0278054
831.478	0.0277432
831.612	0.0285519
831.746	0.0271212
831.881	0.0284897
832.015	0.0278676
832.15	0.0275566
832.284	0.0283653
832.418	0.0278054
832.553	0.0282409
832.687	0.0288007
832.822	0.0284275
832.956	0.0288007
833.091	0.0274944
833.225	0.0283653
833.359	0.0278676
833.494	0.0280542
833.628	0.0276188
833.763	0.027681
833.897	0.027992
834.032	0.0290495
834.166	0.0287385
834.3	0.0277432
834.435	0.0284897
834.569	0.0291117
834.704	0.027992
834.838	0.0284897
834.972	0.0284275
835.107	0.0284897
835.241	0.0282409
835.376	0.0278054
835.51	0.027992
835.645	0.0281787
835.779	0.0283031
835.913	0.0291117
836.048	0.0284897
836.182	0.0293605
836.317	0.0278676
836.451	0.027992
836.585	0.0279298
836.72	0.0277432
836.854	0.0280542
836.989	0.0267479
837.123	0.0283653
837.257	0.0287385
837.392	0.0284897
837.526	0.0278676
837.661	0.0284897
837.795	0.0287385
837.929	0.0283653
838.064	0.0276188
838.198	0.0277432
838.333	0.0287385
838.467	0.0276188
838.602	0.0279298
838.736	0.0280542
838.87	0.0276188
839.005	0.0284275
839.139	0.0282409
839.274	0.0279298
839.408	0.027059
839.542	0.0281787
839.677	0.0288007
839.811	0.0284275
839.946	0.0282409
840.08	0.0284275
840.214	0.0286763
840.349	0.0278054
840.483	0.0279298
840.618	0.0289873
840.752	0.027681
840.886	0.0283653
841.021	0.0280542
841.155	0.0281164
841.29	0.0288007
841.424	0.0283031
841.558	0.0278054
841.693	0.0281164
841.827	0.0281787
841.961	0.0285519
842.096	0.0285519
842.23	0.0283031
842.365	0.027681
842.499	0.0278054
842.633	0.0282409
842.768	0.0284275
842.902	0.0276188
843.037	0.0277432
843.171	0.0282409
843.305	0.0288007
843.44	0.0268102
843.574	0.0282409
843.709	0.0285519
843.843	0.0280542
843.977	0.0283031
844.112	0.0273078
844.246	0.0278676
844.381	0.0286763
844.515	0.027992
844.649	0.0280542
844.784	0.027992
844.918	0.0287385
845.052	0.0284275
845.187	0.0289873
845.321	0.0292983
845.456	0.0288629
845.59	0.0279298
845.724	0.0279298
845.859	0.0282409
845.993	0.0279298
846.128	0.0289251
846.262	0.0289251
846.396	0.0281164
846.531	0.0276188
846.665	0.0285519
846.799	0.0285519
846.934	0.0283653
847.068	0.0280542
847.203	0.0277432
847.337	0.0288007
847.471	0.0296094
847.606	0.0278054
847.74	0.027992
847.874	0.0284897
848.009	0.0275566
848.143	0.0284275
848.278	0.0284897
848.412	0.0279298
848.546	0.0279298
848.681	0.0282409
848.815	0.0281164
848.949	0.0278676
849.084	0.0286141
849.218	0.0275566
849.353	0.0283653
849.487	0.0275566
849.621	0.0283653
849.756	0.027992
849.89	0.0282409
850.024	0.0275566
850.159	0.0276188
850.293	0.0285519
850.428	0.0278054
850.562	0.0286141
850.696	0.0286141
850.831	0.0283031
850.965	0.0278676
851.099	0.0286763
851.234	0.0278054
851.368	0.0279298
851.502	0.0283653
851.637	0.0277432
851.771	0.0285519
851.906	0.027681
852.04	0.0284275
852.174	0.0278054
852.309	0.0280542
852.443	0.0279298
852.577	0.0287385
852.712	0.0277432
852.846	0.0281787
852.98	0.0285519
853.115	0.027992
853.249	0.027992
853.384	0.0284897
853.518	0.0286141
853.652	0.027992
853.787	0.0281787
853.921	0.029796
854.055	0.0274322
854.19	0.0273078
854.324	0.0286763
854.458	0.0287385
854.593	0.0288629
854.727	0.0279298
854.861	0.0281787
854.996	0.0286141
855.13	0.0284275
855.265	0.0289251
855.399	0.0278054
855.533	0.0276188
855.668	0.0284275
855.802	0.0275566
855.936	0.0278054
856.071	0.0283031
856.205	0.027681
856.339	0.0284275
856.474	0.0277432
856.608	0.0278676
856.742	0.0282409
856.877	0.0283653
857.011	0.027992
857.145	0.0286141
857.28	0.0283653
857.414	0.0278676
857.549	0.0285519
857.683	0.0284897
857.817	0.027681
857.952	0.0283031
858.086	0.0283031
858.22	0.0280542
858.355	0.0284275
858.489	0.0283653
858.623	0.0278676
858.758	0.0284275
858.892	0.0274944
859.026	0.0281787
859.161	0.0283653
859.295	0.0292983
859.429	0.0287385
859.564	0.0282409
859.698	0.0278054
859.832	0.0288629
859.967	0.0283031
860.101	0.0283031
860.235	0.0281164
860.37	0.027992
860.504	0.0286763
860.638	0.0275566
860.773	0.0284897
860.907	0.0281164
861.041	0.0283653
861.176	0.0284897
861.31	0.0278676
861.444	0.0288629
861.579	0.027681
861.713	0.0284897
861.847	0.0286141
861.982	0.0276188
862.116	0.0279298
862.25	0.0280542
862.385	0.0278676
862.519	0.0279298
862.653	0.0281164
862.788	0.027992
862.922	0.0283653
863.056	0.0288007
863.191	0.0283653
863.325	0.0275566
863.459	0.0282409
863.594	0.0282409
863.728	0.0278054
863.862	0.0278054
863.997	0.027681
864.131	0.0289873
864.265	0.0286763
864.4	0.0281164
864.534	0.0281787
864.668	0.0288629
864.803	0.0278054
864.937	0.0273078
865.071	0.0283031
865.206	0.0286763
865.34	0.0264369
865.474	0.0280542
865.609	0.0285519
865.743	0.0279298
865.877	0.0281787
866.012	0.0289251
866.146	0.0274322
866.28	0.0286763
866.415	0.0282409
866.549	0.0282409
866.683	0.0283031
866.818	0.027681
866.952	0.0277432
867.086	0.0276188
867.221	0.027681
867.355	0.0280542
867.489	0.0285519
867.623	0.0286763
867.758	0.0280542
867.892	0.0284275
868.026	0.0289873
868.161	0.0281787
868.295	0.0274944
868.429	0.0287385
868.564	0.0282409
868.698	0.027992
868.832	0.0276188
868.967	0.0269346
869.101	0.0278054
869.235	0.0284897
869.37	0.0281787
869.504	0.0291739
869.638	0.0278676
869.773	0.0290495
869.907	0.0275566
870.041	0.0284275
870.175	0.0281164
870.31	0.0283653
870.444	0.0286141
870.578	0.0282409
870.713	0.027681
870.847	0.0280542
870.981	0.0281787
871.116	0.0286763
871.25	0.0284897
871.384	0.0284897
871.519	0.0278676
871.653	0.0292983
871.787	0.0283031
871.921	0.0278676
872.056	0.0281164
872.19	0.0274322
872.324	0.0284275
872.459	0.0292983
872.593	0.0289251
872.727	0.0295472
872.862	0.027992
872.996	0.0294849
873.13	0.0289251
873.264	0.0290495
873.399	0.0287385
873.533	0.0285519
873.667	0.0286763
873.802	0.0277432
873.936	0.0281164
874.07	0.0278676
874.205	0.0276188
874.339	0.0287385
874.473	0.0281787
874.607	0.0293605
874.742	0.0286763
874.876	0.0275566
875.01	0.0292361
875.145	0.0289873
875.279	0.0276188
875.413	0.0284275
875.548	0.0282409
875.682	0.0285519
875.816	0.0278676
875.95	0.0276188
876.085	0.027992
876.219	0.027681
876.353	0.0289873
876.488	0.0279298
876.622	0.0276188
876.756	0.0281787
876.89	0.0283653
877.025	0.0288007
877.159	0.027681
877.293	0.0286141
877.428	0.0280542
877.562	0.027992
877.696	0.0287385
877.83	0.0283653
877.965	0.0282409
878.099	0.027681
878.233	0.027681
878.368	0.0281787
878.502	0.0289873
878.636	0.0281787
878.77	0.02737
878.905	0.0290495
879.039	0.0275566
879.173	0.0281787
879.308	0.0281787
879.442	0.0284897
879.576	0.0278054
879.71	0.0281787
879.845	0.0280542
879.979	0.0289251
880.113	0.0275566
880.248	0.0277432
880.382	0.027992
880.516	0.0283653
880.65	0.0285519
880.785	0.0277432
880.919	0.0283653
881.053	0.0280542
881.188	0.027992
881.322	0.0279298
881.456	0.0281164
881.59	0.0288007
881.725	0.0288007
881.859	0.0286141
881.993	0.0277432
882.127	0.0295472
882.262	0.0281787
882.396	0.0280542
882.53	0.0280542
882.665	0.0281164
882.799	0.0279298
882.933	0.0286763
883.067	0.0286763
883.202	0.0276188
883.336	0.0277432
883.47	0.0278676
883.604	0.0283031
883.739	0.0290495
883.873	0.0286763
884.007	0.02737
884.142	0.0283653
884.276	0.0279298
884.41	0.0281787
884.544	0.0278676
884.679	0.0279298
884.813	0.0279298
884.947	0.0279298
885.081	0.0275566
885.216	0.0278676
885.35	0.0289873
885.484	0.0280542
885.618	0.0269346
885.753	0.0284275
885.887	0.0283653
886.021	0.027681
886.155	0.0279298
886.29	0.0289873
886.424	0.0283653
886.558	0.0288007
886.693	0.0282409
886.827	0.0283031
886.961	0.0287385
887.095	0.0276188
887.23	0.0284275
887.364	0.0272456
887.498	0.0283653
887.632	0.0274944
887.767	0.0286763
887.901	0.0288007
888.035	0.0283653
888.169	0.0282409
888.304	0.0284897
888.438	0.0275566
888.572	0.0285519
888.706	0.0261259
888.841	0.0287385
888.975	0.027681
889.109	0.0279298
889.243	0.0281164
889.378	0.0278676
889.512	0.0285519
889.646	0.0283653
889.78	0.02737
889.915	0.0284897
890.049	0.0282409
890.183	0.027681
890.317	0.0289251
890.452	0.0281164
890.586	0.0283653
890.72	0.0271834
890.854	0.0283031
890.989	0.0280542
891.123	0.0282409
891.257	0.0282409
891.391	0.027059
891.526	0.0284275
891.66	0.0267479
891.794	0.0278054
891.928	0.027681
892.063	0.0279298
892.197	0.0289873
892.331	0.0282409
892.465	0.0287385
892.6	0.0283653
892.734	0.0284897
892.868	0.0283653
893.002	0.0291117
893.137	0.0281164
893.271	0.0281787
893.405	0.0281787
893.539	0.027681
893.674	0.0281787
893.808	0.0271834
893.942	0.0278054
894.076	0.0284897
894.21	0.0282409
894.345	0.0271834
894.479	0.0285519
894.613	0.0280542
894.747	0.0290495
894.882	0.0284897
895.016	0.027681
895.15	0.0278054
895.284	0.0274944
895.419	0.027992
895.553	0.0282409
895.687	0.0284897
895.821	0.0274322
895.956	0.0279298
896.09	0.0281787
896.224	0.0274944
896.358	0.0289873
896.492	0.0283653
896.627	0.0283031
896.761	0.027992
896.895	0.0284275
897.029	0.0291739
897.164	0.027992
897.298	0.0282409
897.432	0.0283653
897.566	0.0278054
897.701	0.0288629
897.835	0.0274322
897.969	0.0283031
898.103	0.0289251
898.237	0.0285519
898.372	0.0283031
898.506	0.0284275
898.64	0.0283653
898.774	0.0281787
898.909	0.0284275
899.043	0.0275566
899.177	0.0281164
899.311	0.0281164
899.445	0.0281787
899.58	0.0266857
899.714	0.0284275
899.848	0.0292361
899.982	0.0286141
900.117	0.0274944
900.251	0.0274322
900.385	0.0277432
900.519	0.0278676
900.653	0.0280542
900.788	0.0284897
900.922	0.027992
901.056	0.0287385
901.19	0.0280542
901.325	0.0277432
901.459	0.0282409
901.593	0.0269968
901.727	0.0291117
901.861	0.0281787
901.996	0.0281787
902.13	0.0281164
902.264	0.0288007
902.398	0.0287385
902.532	0.0281164
902.667	0.0278676
902.801	0.0280542
902.935	0.0285519
903.069	0.0274944
903.204	0.0284897
903.338	0.0290495
903.472	0.0278676
903.606	0.0288629
903.74	0.0278054
903.875	0.0285519
904.009	0.0282409
904.143	0.0280542
904.277	0.0276188
904.411	0.0286141
904.546	0.0279298
904.68	0.0271212
904.814	0.0280542
904.948	0.0286763
905.082	0.0293605
905.217	0.0280542
905.351	0.0286141
905.485	0.0282409
905.619	0.0280542
905.753	0.0287385
905.888	0.027681
906.022	0.0281787
906.156	0.0286141
906.29	0.0281164
906.424	0.0281787
906.559	0.0277432
906.693	0.0286141
906.827	0.0277432
906.961	0.0279298
907.095	0.0276188
907.23	0.0289251
907.364	0.0292983
907.498	0.0285519
907.632	0.0284275
907.766	0.0278676
907.901	0.0281787
908.035	0.0278054
908.169	0.0274322
908.303	0.0283653
908.437	0.027992
908.572	0.0288629
908.706	0.0281164
908.84	0.0281787
908.974	0.0290495
909.108	0.0286141
909.243	0.0282409
909.377	0.0283653
909.511	0.0280542
909.645	0.027992
909.779	0.0274944
909.914	0.0285519
910.048	0.0275566
910.182	0.0278054
910.316	0.0287385
910.45	0.0283031
910.585	0.0280542
910.719	0.0280542
910.853	0.027059
910.987	0.0280542
911.121	0.0287385
911.255	0.027992
911.39	0.0292361
911.524	0.0278676
911.658	0.0281164
911.792	0.0285519
911.926	0.0282409
912.061	0.02737
912.195	0.0284897
912.329	0.0279298
912.463	0.0284897
912.597	0.0282409
912.732	0.0274944
912.866	0.0287385
913	0.0289873
913.134	0.0281787
913.268	0.0290495
913.402	0.0282409
913.537	0.0284897
913.671	0.0277432
913.805	0.027992
913.939	0.0277432
914.073	0.0279298
914.208	0.0285519
914.342	0.0288007
914.476	0.0282409
914.61	0.0286763
914.744	0.0280542
914.878	0.0274944
915.013	0.0281164
915.147	0.0278054
915.281	0.027681
915.415	0.0287385
915.549	0.0284275
915.683	0.027992
915.818	0.0283653
915.952	0.0281164
916.086	0.0274944
916.22	0.027681
916.354	0.0284897
916.488	0.0280542
916.623	0.0281164
916.757	0.0286763
916.891	0.0282409
917.025	0.0279298
917.159	0.0272456
917.293	0.0281164
917.428	0.0282409
917.562	0.0291117
917.696	0.0278054
917.83	0.0278676
917.964	0.0277432
918.098	0.027992
918.233	0.0282409
918.367	0.0275566
918.501	0.0283653
918.635	0.0278676
918.769	0.0281164
918.903	0.0284275
919.038	0.0279298
919.172	0.0289873
919.306	0.0282409
919.44	0.0276188
919.574	0.0284275
919.708	0.027992
919.843	0.0279298
919.977	0.0287385
920.111	0.0281164
920.245	0.0277432
920.379	0.0279298
920.513	0.0278676
920.648	0.0279298
920.782	0.0286763
920.916	0.0287385
921.05	0.0288629
921.184	0.0286141
921.318	0.0284897
921.453	0.0283031
921.587	0.0277432
921.721	0.0283031
921.855	0.0293605
921.989	0.0279298
922.123	0.0286141
922.257	0.0285519
922.392	0.027681
922.526	0.0281164
922.66	0.0290495
922.794	0.0274944
922.928	0.0279298
923.062	0.0275566
923.197	0.0283031
923.331	0.0274322
923.465	0.0278676
923.599	0.0271834
923.733	0.0274944
923.867	0.0275566
924.001	0.0284275
924.136	0.0285519
924.27	0.0278054
924.404	0.0283653
924.538	0.0279298
924.672	0.0289873
924.806	0.0281787
924.94	0.0281164
925.075	0.0285519
925.209	0.0277432
925.343	0.0279298
925.477	0.0282409
925.611	0.0285519
925.745	0.0281787
925.879	0.0272456
926.014	0.0281164
926.148	0.0281787
926.282	0.0281787
926.416	0.0288007
926.55	0.0289251
926.684	0.0284275
926.818	0.0286763
926.953	0.0282409
927.087	0.0284897
927.221	0.0286763
927.355	0.027992
927.489	0.0289251
927.623	0.0278054
927.757	0.0285519
927.892	0.0274944
928.026	0.0286763
928.16	0.0287385
928.294	0.0283653
928.428	0.027992
928.562	0.0280542
928.696	0.0285519
928.831	0.0278676
928.965	0.0294227
929.099	0.0287385
929.233	0.0283031
929.367	0.0285519
929.501	0.0283653
929.635	0.0288629
929.769	0.0281164
929.904	0.0287385
930.038	0.0284275
930.172	0.0283031
930.306	0.027992
930.44	0.0277432
930.574	0.0272456
930.708	0.027992
930.843	0.0283031
930.977	0.0280542
931.111	0.027681
931.245	0.0280542
931.379	0.0281787
931.513	0.0271834
931.647	0.0271834
931.781	0.0275566
931.916	0.0278054
932.05	0.0283031
932.184	0.0285519
932.318	0.0279298
932.452	0.0280542
932.586	0.0286763
932.72	0.0281787
932.854	0.0286763
932.989	0.0291117
933.123	0.0283653
933.257	0.0283653
933.391	0.0288007
933.525	0.0284275
933.659	0.0292361
933.793	0.02737
933.927	0.0281164
934.061	0.0283653
934.196	0.0283031
934.33	0.0283031
934.464	0.0285519
934.598	0.0281164
934.732	0.0284897
934.866	0.0287385
935	0.0289251
935.134	0.0277432
935.269	0.0283031
935.403	0.0283031
935.537	0.0283653
935.671	0.0275566
935.805	0.0282409
935.939	0.0281164
936.073	0.0287385
936.207	0.027681
936.341	0.0283031
936.476	0.0280542
936.61	0.0281787
936.744	0.0274944
936.878	0.0275566
937.012	0.0289251
937.146	0.027681
937.28	0.0284275
937.414	0.0281164
937.548	0.0284275
937.683	0.0283653
937.817	0.0275566
937.951	0.0283653
938.085	0.0284897
938.219	0.0285519
938.353	0.0281164
938.487	0.027992
938.621	0.027681
938.755	0.0280542
938.889	0.027992
939.024	0.027992
939.158	0.0286141
939.292	0.0289873
939.426	0.0288629
939.56	0.0290495
939.694	0.0278676
939.828	0.0284897
939.962	0.0284897
940.096	0.0281164
940.231	0.0277432
940.365	0.0284275
940.499	0.0278676
940.633	0.0276188
940.767	0.0274944
940.901	0.0287385
941.035	0.0272456
941.169	0.0283031
941.303	0.0277432
941.437	0.027681
941.571	0.0279298
941.706	0.0281787
941.84	0.0278054
941.974	0.0291739
942.108	0.0278054
942.242	0.0278054
942.376	0.0282409
942.51	0.0278054
942.644	0.0283653
942.778	0.0284897
942.912	0.0276188
943.047	0.0282409
943.181	0.0282409
943.315	0.0286763
943.449	0.0277432
943.583	0.0283031
943.717	0.0277432
943.851	0.0274944
943.985	0.0283653
944.119	0.0278054
944.253	0.0283653
944.387	0.0286763
944.522	0.0277432
944.656	0.0284275
944.79	0.0283031
944.924	0.0282409
945.058	0.0292983
945.192	0.0283653
945.326	0.0284897
945.46	0.027681
945.594	0.0280542
945.728	0.027992
945.862	0.0278676
945.996	0.0279298
946.131	0.027992
946.265	0.0283653
946.399	0.0281787
946.533	0.0275566
946.667	0.0282409
946.801	0.0289873
946.935	0.0284897
947.069	0.0287385
947.203	0.027059
947.337	0.0274944
947.471	0.0276188
947.605	0.0285519
947.739	0.0287385
947.874	0.0280542
948.008	0.0288007
948.142	0.0281164
948.276	0.0284897
948.41	0.0279298
948.544	0.0273078
948.678	0.0283653
948.812	0.0280542
948.946	0.0278676
949.08	0.0286141
949.214	0.0287385
949.348	0.027681
949.482	0.0280542
949.617	0.027681
949.751	0.0285519
949.885	0.0278054
950.019	0.0289251
950.153	0.0286763
950.287	0.0284897
950.421	0.0278054
950.555	0.0283653
950.689	0.0289873
950.823	0.0291117
950.957	0.0278054
951.091	0.0286141
951.225	0.0285519
951.359	0.0288007
951.493	0.0291117
951.628	0.0281787
951.762	0.0278054
951.896	0.0293605
952.03	0.0283653
952.164	0.0276188
952.298	0.0283031
952.432	0.0278676
952.566	0.0277432
952.7	0.0288007
952.834	0.0280542
952.968	0.0283653
953.102	0.027992
953.236	0.0281787
953.37	0.0288629
953.504	0.0274944
953.639	0.0291739
953.773	0.0283653
953.907	0.0276188
954.041	0.0280542
954.175	0.0281164
954.309	0.0286141
954.443	0.0287385
954.577	0.0281164
954.711	0.0282409
954.845	0.027992
954.979	0.0281787
955.113	0.0284897
955.247	0.0285519
955.381	0.0281787
955.515	0.0286141
955.649	0.0288629
955.783	0.0281787
955.917	0.0296094
956.052	0.027992
956.186	0.0279298
956.32	0.0289873
956.454	0.0288629
956.588	0.0279298
956.722	0.0283031
956.856	0.0279298
956.99	0.0278054
957.124	0.0276188
957.258	0.0282409
957.392	0.0268102
957.526	0.0283031
957.66	0.027681
957.794	0.0282409
957.928	0.027992
958.062	0.0281164
958.196	0.0281787
958.33	0.0284897
958.464	0.0279298
958.598	0.0284897
958.733	0.0276188
958.867	0.0274944
959.001	0.0283031
959.135	0.0286763
959.269	0.0283031
959.403	0.0284897
959.537	0.0278054
959.671	0.0289873
959.805	0.0287385
959.939	0.0279298
960.073	0.0284275
960.207	0.0282409
960.341	0.0282409
960.475	0.0282409
960.609	0.0285519
960.743	0.0281164
960.877	0.0288629
961.011	0.0271834
961.145	0.0278676
961.279	0.0283653
961.413	0.0282409
961.547	0.0285519
961.681	0.0283653
961.815	0.0281164
961.949	0.0281164
962.083	0.0278676
962.218	0.0274944
962.352	0.0280542
962.486	0.0283653
962.62	0.0282409
962.754	0.0273078
962.888	0.027681
963.022	0.0284897
963.156	0.027681
963.29	0.0290495
963.424	0.0280542
963.558	0.0283653
963.692	0.0283653
963.826	0.0281164
963.96	0.0275566
964.094	0.0275566
964.228	0.027681
964.362	0.0284897
964.496	0.0282409
964.63	0.0274944
964.764	0.0283653
964.898	0.0284897
965.032	0.0285519
965.166	0.0278676
965.3	0.0285519
965.434	0.0279298
965.568	0.0283031
965.702	0.0274322
965.836	0.0288629
965.97	0.0278054
966.104	0.0286763
966.238	0.0284897
966.372	0.0288629
966.506	0.0274322
966.64	0.0283031
966.774	0.0289251
966.908	0.0278676
967.043	0.0286763
967.177	0.0278054
967.311	0.0278054
967.445	0.0283653
967.579	0.027992
967.713	0.0286763
967.847	0.0292361
967.981	0.0284275
968.115	0.0279298
968.249	0.0279298
968.383	0.0281164
968.517	0.027059
968.651	0.0288007
968.785	0.0282409
968.919	0.0271212
969.053	0.0278676
969.187	0.0275566
969.321	0.0291739
969.455	0.0288007
969.589	0.0286141
969.723	0.0287385
969.857	0.0283031
969.991	0.0287385
970.125	0.0280542
970.259	0.0283653
970.393	0.0286141
970.527	0.0280542
970.661	0.0275566
970.795	0.0281787
970.929	0.0276188
971.063	0.0281787
971.197	0.0283031
971.331	0.0291117
971.465	0.0277432
971.599	0.0277432
971.733	0.027681
971.867	0.0276188
972.001	0.027992
972.135	0.0280542
972.269	0.0274322
972.403	0.0281164
972.537	0.02737
972.671	0.0283031
972.805	0.0284275
972.939	0.0283653
973.073	0.0283031
973.207	0.0284275
973.341	0.027681
973.475	0.0278054
973.609	0.0271212
973.743	0.0291117
973.877	0.0284897
974.011	0.0286141
974.145	0.0281787
974.279	0.027992
974.413	0.0284897
974.547	0.0280542
974.681	0.0284897
974.815	0.027992
974.949	0.0285519
975.083	0.0281787
975.217	0.0289251
975.351	0.0278054
975.485	0.0288629
975.619	0.0264369
975.753	0.0284275
975.887	0.0285519
976.021	0.0284897
976.155	0.027681
976.289	0.0286141
976.423	0.0289873
976.557	0.0289251
976.691	0.0289251
976.825	0.0278676
976.959	0.0277432
977.093	0.0280542
977.227	0.0278676
977.361	0.0286141
977.495	0.0281164
977.629	0.027992
977.763	0.0279298
977.897	0.0278676
978.031	0.0283031
978.165	0.0278054
978.299	0.027992
978.433	0.0281164
978.567	0.0286141
978.701	0.027992
978.835	0.0276188
978.969	0.0278054
979.103	0.0282409
979.237	0.0283031
979.371	0.0278676
979.505	0.0278054
979.639	0.0281787
979.773	0.0284275
979.907	0.0284897
980.041	0.0274944
980.175	0.0282409
980.308	0.0283653
980.442	0.0288007
980.576	0.0278054
980.71	0.02737
980.844	0.0286763
980.978	0.0277432
981.112	0.0287385
981.246	0.0283653
981.38	0.0281787
981.514	0.0286763
981.648	0.0281164
981.782	0.0282409
981.916	0.027681
982.05	0.0280542
982.184	0.0283031
982.318	0.027681
982.452	0.0277432
982.586	0.0290495
982.72	0.0281164
982.854	0.0269968
982.988	0.0292983
983.122	0.0290495
983.256	0.0278676
983.39	0.0285519
983.524	0.0279298
983.658	0.0281787
983.792	0.0278676
983.926	0.0283031
984.06	0.0289251
984.194	0.0281164
984.328	0.0284275
984.462	0.0279298
984.596	0.0286763
984.73	0.0286141
984.864	0.0286141
984.998	0.027992
985.132	0.0282409
985.265	0.0281787
985.399	0.0280542
985.533	0.0284275
985.667	0.0276188
985.801	0.0267479
985.935	0.0285519
986.069	0.02737
986.203	0.0283031
986.337	0.0278054
986.471	0.0283653
986.605	0.0283031
986.739	0.0282409
986.873	0.0278676
987.007	0.0291117
987.141	0.0283653
987.275	0.0278676
987.409	0.0289873
987.543	0.0284897
987.677	0.0283031
987.811	0.0283031
987.945	0.027992
988.079	0.0288007
988.213	0.0286141
988.347	0.0281164
988.481	0.027681
988.614	0.0279298
988.748	0.0287385
988.882	0.0271834
989.016	0.0280542
989.15	0.0278054
989.284	0.0276188
989.418	0.0279298
989.552	0.0269968
989.686	0.0283653
989.82	0.0286141
989.954	0.027992
990.088	0.0284275
990.222	0.0281787
990.356	0.027681
990.49	0.0284897
990.624	0.0286763
990.758	0.0284275
990.892	0.0284897
991.026	0.0278054
991.16	0.0280542
991.294	0.0276188
991.427	0.0281164
991.561	0.0287385
991.695	0.027992
991.829	0.0281787
991.963	0.0287385
992.097	0.0280542
992.231	0.0290495
992.365	0.0281164
992.499	0.0275566
992.633	0.0285519
992.767	0.027992
992.901	0.027681
993.035	0.0281164
993.169	0.0279298
993.303	0.0275566
993.437	0.0279298
993.571	0.0282409
993.704	0.0287385
993.838	0.0291739
993.972	0.0282409
994.106	0.0281787
994.24	0.0275566
994.374	0.0283031
994.508	0.0286763
994.642	0.0278054
994.776	0.027681
994.91	0.0283653
995.044	0.0280542
995.178	0.0281787
995.312	0.0279298
995.446	0.0284275
995.58	0.0285519
995.714	0.0279298
995.847	0.0281787
995.981	0.0281787
996.115	0.0278054
996.249	0.0281787
996.383	0.0278054
996.517	0.0275566
996.651	0.0281787
996.785	0.0278054
996.919	0.0278676
997.053	0.027681
997.187	0.0274944
997.321	0.0277432
997.455	0.0285519
997.589	0.0276188
997.722	0.0278054
997.856	0.0277432
997.99	0.0288007
998.124	0.0283031
998.258	0.0288007
998.392	0.027992
998.526	0.0281787
998.66	0.0284275
998.794	0.0290495
998.928	0.0273078
999.062	0.0281787
999.196	0.0281787
999.33	0.0286141
999.464	0.0283653
999.597	0.0278054
999.731	0.0273078
999.865	0.0281164
999.999	0.02737
1000.13	0.027992
1000.27	0.0279298
1000.4	0.0294227
1000.53	0.0284275
1000.67	0.0280542
1000.8	0.0278054
1000.94	0.0279298
1001.07	0.0275566
1001.2	0.0286763
1001.34	0.0286141
1001.47	0.0286141
1001.61	0.0278054
1001.74	0.0283653
1001.87	0.0284275
1002.01	0.0278676
1002.14	0.0286141
1002.28	0.0285519
1002.41	0.0278054
1002.54	0.0284275
1002.68	0.0281164
1002.81	0.0281787
1002.95	0.0283653
1003.08	0.0283031
1003.21	0.0276188
1003.35	0.0283653
1003.48	0.0281787
1003.61	0.027681
1003.75	0.0274322
1003.88	0.0277432
1004.02	0.0275566
1004.15	0.0284897
1004.28	0.0276188
1004.42	0.0284275
1004.55	0.0274944
1004.69	0.0287385
1004.82	0.0285519
1004.95	0.0285519
1005.09	0.0278676
1005.22	0.0281164
1005.36	0.0280542
1005.49	0.0279298
1005.62	0.0280542
1005.76	0.0286763
1005.89	0.0284897
1006.03	0.027992
1006.16	0.0287385
1006.29	0.02737
1006.43	0.0279298
1006.56	0.0279298
1006.69	0.0280542
1006.83	0.0275566
1006.96	0.0280542
1007.1	0.0278054
1007.23	0.0285519
1007.36	0.0281787
1007.5	0.0285519
1007.63	0.027681
1007.77	0.0288007
1007.9	0.0284275
1008.03	0.0290495
1008.17	0.0281787
1008.3	0.0281787
1008.44	0.0279298
1008.57	0.0276188
1008.7	0.0292361
1008.84	0.0288629
1008.97	0.0283031
1009.1	0.0285519
1009.24	0.0284275
1009.37	0.0276188
1009.51	0.0283031
1009.64	0.0281787
1009.77	0.0283653
1009.91	0.0281787
1010.04	0.0274322
1010.18	0.0275566
1010.31	0.0283031
1010.44	0.0281787
1010.58	0.0279298
1010.71	0.0284897
1010.85	0.0282409
1010.98	0.0281787
1011.11	0.0286763
1011.25	0.0286141
1011.38	0.0289251
1011.51	0.0281164
1011.65	0.0280542
1011.78	0.0277432
1011.92	0.0276188
1012.05	0.0287385
1012.18	0.0278054
1012.32	0.0281787
1012.45	0.0279298
1012.59	0.0269968
1012.72	0.0291739
1012.85	0.0278054
1012.99	0.0279298
1013.12	0.027992
1013.26	0.0281164
1013.39	0.0287385
1013.52	0.027992
1013.66	0.0278676
1013.79	0.0281164
1013.92	0.02737
1014.06	0.027992
1014.19	0.0285519
1014.33	0.0286141
1014.46	0.0284897
1014.59	0.027992
1014.73	0.0279298
1014.86	0.0281164
1015	0.0285519
1015.13	0.0292361
1015.26	0.0276188
1015.4	0.0282409
1015.53	0.0283031
1015.67	0.0285519
1015.8	0.027681
1015.93	0.027681
1016.07	0.0281164
1016.2	0.027681
1016.33	0.0291117
1016.47	0.0283031
1016.6	0.0284897
1016.74	0.027992
1016.87	0.0284275
1017	0.0273078
1017.14	0.0284275
1017.27	0.0288007
1017.41	0.0285519
1017.54	0.0279298
1017.67	0.0284275
1017.81	0.0286763
1017.94	0.0281164
1018.07	0.0288629
1018.21	0.0278676
1018.34	0.0278054
1018.48	0.0274322
1018.61	0.0278054
1018.74	0.0275566
1018.88	0.0274322
1019.01	0.0278676
1019.15	0.0280542
1019.28	0.0288007
1019.41	0.0280542
1019.55	0.0283031
1019.68	0.0284275
1019.82	0.0288007
1019.95	0.0281164
1020.08	0.0290495
1020.22	0.0286763
1020.35	0.0291117
1020.48	0.0292361
1020.62	0.0283031
1020.75	0.0290495
1020.89	0.0282409
1021.02	0.0282409
1021.15	0.027992
1021.29	0.0283653
1021.42	0.0283031
1021.56	0.0279298
1021.69	0.0289251
1021.82	0.0278054
1021.96	0.0274322
1022.09	0.0282409
1022.22	0.0275566
1022.36	0.0285519
1022.49	0.0282409
1022.63	0.027059
1022.76	0.0276188
1022.89	0.0279298
1023.03	0.0286763
1023.16	0.0282409
1023.3	0.0280542
1023.43	0.0290495
1023.56	0.0284897
1023.7	0.0286141
1023.83	0.0289873
1023.96	0.0294849
1024.1	0.0283653
1024.23	0.0280542
1024.37	0.0283031
1024.5	0.0286141
1024.63	0.0281787
1024.77	0.0290495
1024.9	0.0282409
1025.04	0.0276188
1025.17	0.0287385
1025.3	0.0282409
1025.44	0.0275566
1025.57	0.0278676
1025.7	0.0277432
1025.84	0.0284897
1025.97	0.0281164
1026.11	0.0292361
1026.24	0.0280542
1026.37	0.0286763
1026.51	0.0286763
1026.64	0.0290495
1026.78	0.027992
1026.91	0.0278676
1027.04	0.0280542
1027.18	0.0287385
1027.31	0.0281787
1027.44	0.0275566
1027.58	0.0275566
1027.71	0.027992
1027.85	0.0283031
1027.98	0.0281787
1028.11	0.0282409
1028.25	0.0282409
1028.38	0.0284275
1028.52	0.0283653
1028.65	0.0277432
1028.78	0.0279298
1028.92	0.0282409
1029.05	0.0283031
1029.18	0.0280542
1029.32	0.0285519
1029.45	0.0282409
1029.59	0.0278676
1029.72	0.027992
1029.85	0.027992
1029.99	0.0278054
1030.12	0.0281164
1030.26	0.0278054
1030.39	0.0288629
1030.52	0.0284897
1030.66	0.0282409
1030.79	0.0279298
1030.92	0.0285519
1031.06	0.0289873
1031.19	0.0281787
1031.33	0.0281164
1031.46	0.0277432
1031.59	0.0287385
1031.73	0.0281164
1031.86	0.0286763
1031.99	0.0283653
1032.13	0.0278676
1032.26	0.027992
1032.4	0.0282409
1032.53	0.0283653
1032.66	0.0281164
1032.8	0.0284275
1032.93	0.0278676
1033.07	0.0277432
1033.2	0.0279298
1033.33	0.0287385
1033.47	0.0282409
1033.6	0.0284897
1033.73	0.0277432
1033.87	0.0289873
1034	0.0279298
1034.14	0.0283031
1034.27	0.0274944
1034.4	0.0283653
1034.54	0.0284275
1034.67	0.02737
1034.81	0.0289251
1034.94	0.027681
1035.07	0.0280542
1035.21	0.0278676
1035.34	0.0286141
1035.47	0.0281164
1035.61	0.027992
1035.74	0.0281164
1035.88	0.0283653
1036.01	0.0287385
1036.14	0.0278054
1036.28	0.0284275
1036.41	0.0289251
1036.54	0.0285519
1036.68	0.0288629
1036.81	0.027992
1036.95	0.0284275
1037.08	0.0282409
1037.21	0.0285519
1037.35	0.0282409
1037.48	0.0286141
1037.62	0.0278054
1037.75	0.0279298
1037.88	0.0283031
1038.02	0.0284897
1038.15	0.0283653
1038.28	0.027992
1038.42	0.0284275
1038.55	0.027992
1038.69	0.0282409
1038.82	0.0284275
1038.95	0.0277432
1039.09	0.0280542
1039.22	0.0282409
1039.35	0.0274944
1039.49	0.0281164
1039.62	0.0284897
1039.76	0.0274944
1039.89	0.0284275
1040.02	0.0287385
1040.16	0.0285519
1040.29	0.0282409
1040.43	0.0287385
1040.56	0.0282409
1040.69	0.0292361
1040.83	0.027681
1040.96	0.0276188
1041.09	0.0284897
1041.23	0.0283653
1041.36	0.0280542
1041.5	0.0280542
1041.63	0.0279298
1041.76	0.0280542
1041.9	0.0285519
1042.03	0.0286141
1042.16	0.027681
1042.3	0.0279298
1042.43	0.0283653
1042.57	0.0289873
1042.7	0.027992
1042.83	0.0283653
1042.97	0.0291739
1043.1	0.0281787
1043.23	0.027992
1043.37	0.027059
1043.5	0.0288007
1043.64	0.0281164
1043.77	0.0283031
1043.9	0.0282409
1044.04	0.0276188
1044.17	0.027992
1044.31	0.0278054
1044.44	0.0283653
1044.57	0.0283031
1044.71	0.027992
1044.84	0.0285519
1044.97	0.027681
1045.11	0.0278676
1045.24	0.0281787
1045.38	0.0289251
1045.51	0.0282409
1045.64	0.0292983
1045.78	0.0277432
1045.91	0.0275566
1046.04	0.0288629
1046.18	0.0278676
1046.31	0.0291117
1046.45	0.027681
1046.58	0.0279298
1046.71	0.0282409
1046.85	0.0281164
1046.98	0.0280542
1047.11	0.0278054
1047.25	0.027992
1047.38	0.0278054
1047.52	0.0285519
1047.65	0.0289251
1047.78	0.0282409
1047.92	0.0280542
1048.05	0.0284897
1048.18	0.0274944
1048.32	0.0291739
1048.45	0.0287385
1048.59	0.0287385
1048.72	0.0272456
1048.85	0.0288629
1048.99	0.0276188
1049.12	0.0283031
1049.25	0.0289873
1049.39	0.0286763
1049.52	0.0277432
1049.66	0.0276188
1049.79	0.0280542
1049.92	0.0279298
1050.06	0.0280542
1050.19	0.0287385
1050.33	0.0288007
1050.46	0.0287385
1050.59	0.0280542
1050.73	0.0286763
1050.86	0.0283031
1050.99	0.0292983
1051.13	0.0280542
1051.26	0.0286763
1051.4	0.027992
1051.53	0.027992
1051.66	0.0296094
1051.8	0.0286763
1051.93	0.0284897
1052.06	0.0284897
1052.2	0.0285519
1052.33	0.0284897
1052.47	0.0283653
1052.6	0.027992
1052.73	0.0278054
1052.87	0.0280542
1053	0.0284897
1053.13	0.0277432
1053.27	0.0278676
1053.4	0.0271212
1053.54	0.0280542
1053.67	0.0280542
1053.8	0.0278676
1053.94	0.0285519
1054.07	0.0278676
1054.2	0.0272456
1054.34	0.0290495
1054.47	0.0285519
1054.61	0.0278054
1054.74	0.0281164
1054.87	0.0275566
1055.01	0.0287385
1055.14	0.0281164
1055.27	0.0289251
1055.41	0.0285519
1055.54	0.0276188
1055.68	0.0281787
1055.81	0.0283653
1055.94	0.0278054
1056.08	0.0283031
1056.21	0.027992
1056.34	0.0285519
1056.48	0.0274322
1056.61	0.0281787
1056.75	0.0277432
1056.88	0.0281164
1057.01	0.0283031
1057.15	0.0283653
1057.28	0.0281164
1057.41	0.0280542
1057.55	0.0273078
1057.68	0.0289251
1057.82	0.0276188
1057.95	0.027992
1058.08	0.0285519
1058.22	0.0280542
1058.35	0.0274322
1058.48	0.027992
1058.62	0.0277432
1058.75	0.0284897
1058.89	0.0278676
1059.02	0.0281164
1059.15	0.02737
1059.29	0.0284897
1059.42	0.0271834
1059.55	0.0286141
1059.69	0.0277432
1059.82	0.0283653
1059.96	0.0284897
1060.09	0.0289873
1060.22	0.0282409
1060.36	0.0276188
1060.49	0.0288629
1060.62	0.0287385
1060.76	0.0283031
1060.89	0.0281787
1061.03	0.0281787
1061.16	0.0287385
1061.29	0.0274944
1061.43	0.0289251
1061.56	0.0278054
1061.69	0.0287385
1061.83	0.0283031
1061.96	0.0284275
1062.1	0.0289251
1062.23	0.0281164
1062.36	0.0278054
1062.5	0.0281787
1062.63	0.0277432
1062.76	0.0283031
1062.9	0.0284275
1063.03	0.0286141
1063.17	0.0285519
1063.3	0.0283031
1063.43	0.0285519
1063.57	0.0278054
1063.7	0.0281164
1063.83	0.0282409
1063.97	0.0274944
1064.1	0.0286141
1064.23	0.0284897
1064.37	0.0283653
1064.5	0.0272456
1064.64	0.0288007
1064.77	0.0277432
1064.9	0.0286141
1065.04	0.0282409
1065.17	0.027992
1065.3	0.0275566
1065.44	0.0288629
1065.57	0.0277432
1065.71	0.0275566
1065.84	0.0280542
1065.97	0.0283031
1066.11	0.0280542
1066.24	0.0283653
1066.37	0.0283653
1066.51	0.0284275
1066.64	0.0284897
1066.78	0.027992
1066.91	0.0280542
1067.04	0.0279298
1067.18	0.027992
1067.31	0.0276188
1067.44	0.0281787
1067.58	0.0279298
1067.71	0.0283031
1067.85	0.0268724
1067.98	0.0284897
1068.11	0.0274944
1068.25	0.0286763
1068.38	0.0283653
1068.51	0.0278054
1068.65	0.0285519
1068.78	0.0277432
1068.92	0.0280542
1069.05	0.0280542
1069.18	0.0278676
1069.32	0.0273078
1069.45	0.0280542
1069.58	0.0274944
1069.72	0.0291739
1069.85	0.0278054
1069.98	0.0290495
1070.12	0.0278054
1070.25	0.0283653
1070.39	0.0282409
1070.52	0.0294227
1070.65	0.027681
1070.79	0.0283653
1070.92	0.0281164
1071.05	0.0289251
1071.19	0.0282409
1071.32	0.0279298
1071.46	0.0262503
1071.59	0.0285519
1071.72	0.0283653
1071.86	0.0282409
1071.99	0.0277432
1072.12	0.0273078
1072.26	0.0282409
1072.39	0.0283031
1072.53	0.0283031
1072.66	0.0294849
1072.79	0.0281787
1072.93	0.0286763
1073.06	0.027681
1073.19	0.0292361
1073.33	0.027681
1073.46	0.0288007
1073.59	0.0268724
1073.73	0.0281164
1073.86	0.0283031
1074	0.0276188
1074.13	0.0286763
1074.26	0.0282409
1074.4	0.0278054
1074.53	0.0278676
1074.66	0.0274944
1074.8	0.0283031
1074.93	0.0296716
1075.07	0.027992
1075.2	0.027681
1075.33	0.0286141
1075.47	0.027992
1075.6	0.0278054
1075.73	0.027992
1075.87	0.0278676
1076	0.0271212
1076.14	0.0282409
1076.27	0.027681
1076.4	0.0285519
1076.54	0.0281164
1076.67	0.0280542
1076.8	0.0280542
1076.94	0.0288629
1077.07	0.0281787
1077.2	0.0284275
1077.34	0.0276188
1077.47	0.0275566
1077.61	0.027681
1077.74	0.0282409
1077.87	0.0286141
1078.01	0.0285519
1078.14	0.027992
1078.27	0.0281164
1078.41	0.02737
1078.54	0.0285519
1078.68	0.0281164
1078.81	0.0287385
1078.94	0.0284897
1079.08	0.0287385
1079.21	0.0274322
1079.34	0.0283653
1079.48	0.0278054
1079.61	0.0291739
1079.74	0.0279298
1079.88	0.0284275
1080.01	0.0274944
1080.15	0.027681
1080.28	0.0291739
1080.41	0.0283653
1080.55	0.027992
1080.68	0.0288007
1080.81	0.0285519
1080.95	0.0282409
1081.08	0.0282409
1081.22	0.0277432
1081.35	0.0284275
1081.48	0.0276188
1081.62	0.0282409
1081.75	0.0287385
1081.88	0.0283031
1082.02	0.0272456
1082.15	0.0279298
1082.28	0.0287385
1082.42	0.0274944
1082.55	0.0289873
1082.69	0.0285519
1082.82	0.0281164
1082.95	0.0278676
1083.09	0.027992
1083.22	0.0281164
1083.35	0.0283031
1083.49	0.0278054
1083.62	0.0282409
1083.75	0.0283653
1083.89	0.0284275
1084.02	0.0284897
1084.16	0.027992
1084.29	0.0274944
1084.42	0.0274944
1084.56	0.0278054
1084.69	0.0277432
1084.82	0.0286141
1084.96	0.0280542
1085.09	0.0283031
1085.23	0.0283031
1085.36	0.0285519
1085.49	0.0281787
1085.63	0.0288007
1085.76	0.0283031
1085.89	0.0282409
1086.03	0.0285519
1086.16	0.0287385
1086.29	0.0287385
1086.43	0.0286763
1086.56	0.0276188
1086.7	0.0286141
1086.83	0.0281787
1086.96	0.0278676
1087.1	0.0279298
1087.23	0.0284897
1087.36	0.0281787
1087.5	0.027992
1087.63	0.0283031
1087.76	0.0289251
1087.9	0.0288007
1088.03	0.0283031
1088.17	0.0287385
1088.3	0.027992
1088.43	0.0294227
1088.57	0.0278676
1088.7	0.0277432
1088.83	0.0280542
1088.97	0.0282409
1089.1	0.0285519
1089.24	0.0284897
1089.37	0.0280542
1089.5	0.0286763
1089.64	0.0280542
1089.77	0.0279298
1089.9	0.0291117
1090.04	0.0280542
1090.17	0.0285519
1090.3	0.0285519
1090.44	0.0282409
1090.57	0.0277432
1090.71	0.0277432
1090.84	0.0281164
1090.97	0.0280542
1091.11	0.0278676
1091.24	0.0279298
1091.37	0.0291117
1091.51	0.0287385
1091.64	0.0283031
1091.77	0.0278054
1091.91	0.0278676
1092.04	0.0279298
1092.18	0.027992
1092.31	0.0284897
1092.44	0.0271212
1092.58	0.0274944
1092.71	0.0285519
1092.84	0.0273078
1092.98	0.0283653
1093.11	0.0281787
1093.24	0.0292361
1093.38	0.0284897
1093.51	0.0281164
1093.65	0.0283653
1093.78	0.0287385
1093.91	0.0277432
1094.05	0.0276188
1094.18	0.0288007
1094.31	0.0296716
1094.45	0.0286763
1094.58	0.0291117
1094.71	0.0287385
1094.85	0.0278054
1094.98	0.0285519
1095.12	0.0288007
1095.25	0.0294227
1095.38	0.0277432
1095.52	0.0283031
1095.65	0.0271834
1095.78	0.0281164
1095.92	0.0283653
1096.05	0.0282409
1096.18	0.0281787
1096.32	0.0269968
1096.45	0.0289251
1096.59	0.0286763
1096.72	0.0278676
1096.85	0.0284897
1096.99	0.0281164
1097.12	0.0282409
1097.25	0.0280542
1097.39	0.0272456
1097.52	0.0288629
1097.65	0.0278676
1097.79	0.0282409
1097.92	0.0283031
1098.06	0.0287385
1098.19	0.0285519
1098.32	0.0288629
1098.46	0.0287385
1098.59	0.0278054
1098.72	0.0284897
1098.86	0.0289873
1098.99	0.0278054
1099.12	0.0283653
1099.26	0.0274322
1099.39	0.0284275
1099.53	0.0279298
1099.66	0.0284275
1099.79	0.027992
1099.93	0.0290495
1100.06	0.0292361
1100.19	0.0275566
1100.33	0.0284897
1100.46	0.027992
1100.59	0.0280542
1100.73	0.0277432
1100.86	0.0283653
1100.99	0.0288007
1101.13	0.0285519
1101.26	0.0285519
1101.4	0.0289251
1101.53	0.0281787
1101.66	0.0279298
1101.8	0.0282409
1101.93	0.0284897
1102.06	0.0285519
1102.2	0.0286141
1102.33	0.0288007
1102.46	0.0281164
1102.6	0.0289251
1102.73	0.0275566
1102.87	0.0290495
1103	0.0283653
1103.13	0.0288007
1103.27	0.0278676
1103.4	0.0279298
1103.53	0.0277432
1103.67	0.0279298
1103.8	0.0283031
1103.93	0.0280542
1104.07	0.0284897
1104.2	0.0283031
1104.34	0.0283031
1104.47	0.0284897
1104.6	0.0279298
1104.74	0.0288629
1104.87	0.0285519
1105	0.0283653
1105.14	0.0283031
1105.27	0.0276188
1105.4	0.0276188
1105.54	0.0281164
1105.67	0.0273078
1105.8	0.0286763
1105.94	0.0279298
1106.07	0.0287385
1106.21	0.027992
1106.34	0.027992
1106.47	0.0286141
1106.61	0.0276188
1106.74	0.0287385
1106.87	0.0281164
1107.01	0.0284275
1107.14	0.0287385
1107.27	0.0278676
1107.41	0.0288007
1107.54	0.0284275

