Source: Spectrum Viewer

Chart: Pulse Spectrum

Series: 
Wavelength (nm)	S (a.u.)
617.638	0.0289102
617.773	0.0279323
617.908	0.026771
618.043	0.0267099
618.178	0.0279934
618.313	0.0276878
618.448	0.0276267
618.583	0.0279934
618.718	0.0272599
618.853	0.0276878
618.988	0.0284824
619.123	0.0271377
619.258	0.0272599
619.394	0.028299
619.529	0.0275044
619.664	0.0271377
619.799	0.0289102
619.934	0.0273822
620.069	0.0276267
620.204	0.0271377
620.339	0.0269543
620.474	0.0273822
620.609	0.0279934
620.744	0.0282379
620.879	0.0279323
621.014	0.0271988
621.149	0.0270155
621.284	0.0273211
621.419	0.0271377
621.554	0.0279323
621.689	0.0288491
621.825	0.0276878
621.96	0.0278712
622.095	0.0284824
622.23	0.0268932
622.365	0.0281768
622.5	0.0278712
622.635	0.0273822
622.77	0.0279934
622.905	0.0280545
623.04	0.02781
623.175	0.0275656
623.31	0.0269543
623.445	0.0276878
623.58	0.0268932
623.715	0.028788
623.85	0.0283601
623.985	0.0282379
624.12	0.0276878
624.255	0.0275044
624.39	0.0281768
624.525	0.0278712
624.661	0.0275044
624.796	0.0272599
624.931	0.02781
625.066	0.028299
625.201	0.0275044
625.336	0.0281156
625.471	0.0281156
625.606	0.0277489
625.741	0.028299
625.876	0.0277489
626.011	0.0288491
626.146	0.0277489
626.281	0.0285435
626.416	0.0281156
626.551	0.0282379
626.686	0.0277489
626.821	0.0287269
626.956	0.0268932
627.091	0.0278712
627.226	0.0276267
627.361	0.0276267
627.496	0.0270766
627.631	0.0273822
627.766	0.0280545
627.901	0.028788
628.036	0.02781
628.171	0.0280545
628.307	0.0276878
628.442	0.0281156
628.577	0.0278712
628.712	0.0271988
628.847	0.0278712
628.982	0.0276878
629.117	0.0281768
629.252	0.02781
629.387	0.0277489
629.522	0.0276267
629.657	0.0275044
629.792	0.02781
629.927	0.0271377
630.062	0.0279323
630.197	0.0270155
630.332	0.0278712
630.467	0.0280545
630.602	0.0268321
630.737	0.0279934
630.872	0.0284824
631.007	0.0282379
631.142	0.0279934
631.277	0.02781
631.412	0.0282379
631.547	0.0277489
631.682	0.0270155
631.817	0.0275656
631.952	0.0276878
632.087	0.0275656
632.222	0.0273822
632.357	0.0277489
632.492	0.0292769
632.627	0.0285435
632.762	0.02781
632.897	0.0279934
633.032	0.0282379
633.167	0.0272599
633.302	0.0270155
633.437	0.0280545
633.572	0.0282379
633.707	0.026771
633.842	0.0275656
633.978	0.0275044
634.113	0.0279323
634.248	0.0275656
634.383	0.0276878
634.518	0.0281156
634.653	0.0280545
634.788	0.0282379
634.923	0.0269543
635.058	0.0276267
635.193	0.0269543
635.328	0.0282379
635.463	0.0280545
635.598	0.0284212
635.733	0.028299
635.868	0.0279934
636.003	0.0275656
636.138	0.0269543
636.273	0.0271377
636.408	0.0276267
636.543	0.0282379
636.678	0.0276878
636.813	0.0282379
636.948	0.0281156
637.083	0.028788
637.218	0.02781
637.353	0.0279934
637.488	0.0271377
637.623	0.0277489
637.758	0.0274433
637.893	0.0281156
638.028	0.0283601
638.163	0.0269543
638.298	0.0274433
638.433	0.0279934
638.568	0.0289102
638.703	0.0271988
638.838	0.0276878
638.973	0.0266487
639.108	0.0272599
639.243	0.0283601
639.378	0.0275656
639.513	0.0278712
639.648	0.0278712
639.783	0.0275044
639.918	0.0273822
640.053	0.0279934
640.188	0.0287269
640.323	0.0275044
640.458	0.028299
640.593	0.0281156
640.728	0.0272599
640.863	0.0275656
640.998	0.0289102
641.133	0.0274433
641.268	0.0279323
641.403	0.0277489
641.538	0.0278712
641.673	0.0282379
641.808	0.0276878
641.943	0.0280545
642.078	0.0271988
642.213	0.0280545
642.348	0.0275044
642.483	0.0277489
642.618	0.0275044
642.753	0.0273211
642.888	0.0281156
643.023	0.0287269
643.158	0.0284212
643.293	0.0279323
643.428	0.0275044
643.563	0.0277489
643.698	0.02781
643.833	0.0286046
643.968	0.0279323
644.103	0.0274433
644.237	0.0279323
644.372	0.0276878
644.507	0.02781
644.642	0.02781
644.777	0.0275044
644.912	0.0286046
645.047	0.0270155
645.182	0.0275044
645.317	0.0286657
645.452	0.026771
645.587	0.028299
645.722	0.0281156
645.857	0.0274433
645.992	0.0276878
646.127	0.0278712
646.262	0.0274433
646.397	0.0276878
646.532	0.0283601
646.667	0.0276878
646.802	0.0282379
646.937	0.0276878
647.072	0.0277489
647.207	0.0284212
647.342	0.0273211
647.477	0.0275656
647.612	0.0281156
647.747	0.0270766
647.882	0.0280545
648.017	0.0275656
648.152	0.0272599
648.287	0.0273211
648.422	0.0268321
648.557	0.0275044
648.692	0.0277489
648.827	0.0282379
648.962	0.0284212
649.097	0.0281156
649.232	0.0275656
649.367	0.0280545
649.502	0.0281768
649.637	0.0268932
649.772	0.02781
649.906	0.0275044
650.041	0.0269543
650.176	0.0275044
650.311	0.0273211
650.446	0.0279323
650.581	0.0274433
650.716	0.0277489
650.851	0.028299
650.986	0.0288491
651.121	0.0276267
651.256	0.0276267
651.391	0.0272599
651.526	0.0279323
651.661	0.0266487
651.796	0.0279934
651.931	0.0278712
652.066	0.02781
652.201	0.0277489
652.336	0.0273822
652.471	0.0275656
652.606	0.0275044
652.741	0.0276878
652.876	0.0283601
653.011	0.0278712
653.146	0.0273211
653.281	0.0270766
653.415	0.0279323
653.55	0.0286657
653.685	0.0276267
653.82	0.0272599
653.955	0.0279323
654.09	0.0272599
654.225	0.0276267
654.36	0.0277489
654.495	0.0265876
654.63	0.0279934
654.765	0.0268932
654.9	0.02781
655.035	0.0277489
655.17	0.0277489
655.305	0.0279323
655.44	0.028299
655.575	0.0267099
655.71	0.0284824
655.845	0.0270766
655.98	0.0264654
656.115	0.0276878
656.25	0.0282379
656.384	0.0277489
656.519	0.0285435
656.654	0.02781
656.789	0.0277489
656.924	0.0273211
657.059	0.0273211
657.194	0.0276878
657.329	0.0274433
657.464	0.0276878
657.599	0.02781
657.734	0.0277489
657.869	0.0268932
658.004	0.0275656
658.139	0.0280545
658.274	0.028299
658.409	0.0277489
658.544	0.0277489
658.679	0.0280545
658.813	0.026771
658.948	0.0274433
659.083	0.0277489
659.218	0.0278712
659.353	0.0273822
659.488	0.0276878
659.623	0.0277489
659.758	0.0276267
659.893	0.0275656
660.028	0.0280545
660.163	0.0278712
660.298	0.0275044
660.433	0.028299
660.568	0.0269543
660.703	0.0279323
660.838	0.0268321
660.972	0.0286046
661.107	0.0276267
661.242	0.0271377
661.377	0.0273822
661.512	0.0270766
661.647	0.0281768
661.782	0.0284824
661.917	0.0280545
662.052	0.0279934
662.187	0.0273211
662.322	0.0274433
662.457	0.0275656
662.592	0.0278712
662.727	0.0274433
662.862	0.0268321
662.996	0.0278712
663.131	0.0276878
663.266	0.02781
663.401	0.0266487
663.536	0.0279934
663.671	0.0283601
663.806	0.0274433
663.941	0.0268932
664.076	0.0276267
664.211	0.02781
664.346	0.0284212
664.481	0.0275656
664.616	0.0279934
664.75	0.0273822
664.885	0.0277489
665.02	0.02781
665.155	0.0273211
665.29	0.02781
665.425	0.0267099
665.56	0.0276878
665.695	0.02781
665.83	0.0271377
665.965	0.0281768
666.1	0.0276267
666.235	0.0276267
666.37	0.0281156
666.504	0.0275656
666.639	0.02781
666.774	0.0275656
666.909	0.0286657
667.044	0.0281768
667.179	0.0277489
667.314	0.0276878
667.449	0.0268932
667.584	0.0277489
667.719	0.0271988
667.854	0.0268321
667.989	0.0290325
668.123	0.0279323
668.258	0.0280545
668.393	0.0270766
668.528	0.0281156
668.663	0.0275656
668.798	0.0276267
668.933	0.0278712
669.068	0.0272599
669.203	0.02781
669.338	0.0267099
669.473	0.0277489
669.607	0.0279323
669.742	0.0279323
669.877	0.0279934
670.012	0.0275656
670.147	0.0273822
670.282	0.0281156
670.417	0.0279934
670.552	0.0281156
670.687	0.0278712
670.822	0.0271988
670.957	0.0276878
671.091	0.0274433
671.226	0.0273822
671.361	0.0278712
671.496	0.0279323
671.631	0.0273822
671.766	0.02781
671.901	0.028299
672.036	0.0279323
672.171	0.026771
672.306	0.0289102
672.44	0.0287269
672.575	0.0270766
672.71	0.0281768
672.845	0.0270766
672.98	0.0280545
673.115	0.0271377
673.25	0.0271988
673.385	0.0274433
673.52	0.0273211
673.655	0.0277489
673.789	0.0286046
673.924	0.0275044
674.059	0.0279934
674.194	0.0268321
674.329	0.0272599
674.464	0.0268932
674.599	0.0280545
674.734	0.0276267
674.869	0.028299
675.003	0.0275656
675.138	0.0279934
675.273	0.0275044
675.408	0.0277489
675.543	0.02781
675.678	0.0279323
675.813	0.028299
675.948	0.0277489
676.083	0.0278712
676.217	0.0286046
676.352	0.0281768
676.487	0.0281156
676.622	0.0279323
676.757	0.0276267
676.892	0.0277489
677.027	0.0284824
677.162	0.0276267
677.297	0.028299
677.431	0.0269543
677.566	0.0267099
677.701	0.0279323
677.836	0.0277489
677.971	0.0276878
678.106	0.0265876
678.241	0.0281768
678.376	0.0272599
678.511	0.0276878
678.645	0.0283601
678.78	0.0279934
678.915	0.0273211
679.05	0.0275656
679.185	0.0277489
679.32	0.0270766
679.455	0.02781
679.59	0.02781
679.724	0.02781
679.859	0.0271988
679.994	0.02781
680.129	0.0290325
680.264	0.0277489
680.399	0.0276267
680.534	0.0282379
680.669	0.0272599
680.803	0.0276267
680.938	0.0275656
681.073	0.0282379
681.208	0.0270766
681.343	0.0281156
681.478	0.0283601
681.613	0.0273211
681.748	0.0273211
681.882	0.0267099
682.017	0.0273211
682.152	0.0276878
682.287	0.0270155
682.422	0.0284824
682.557	0.0274433
682.692	0.026771
682.827	0.0274433
682.961	0.0283601
683.096	0.0285435
683.231	0.0268932
683.366	0.0276267
683.501	0.0281768
683.636	0.0273211
683.771	0.0280545
683.906	0.0282379
684.04	0.0275656
684.175	0.0279323
684.31	0.0275656
684.445	0.0281156
684.58	0.0279934
684.715	0.0281768
684.85	0.0279934
684.984	0.0270155
685.119	0.028299
685.254	0.0277489
685.389	0.0269543
685.524	0.0271377
685.659	0.0281156
685.794	0.0278712
685.928	0.0288491
686.063	0.0278712
686.198	0.0276267
686.333	0.0267099
686.468	0.0282379
686.603	0.0284212
686.738	0.0276267
686.872	0.028299
687.007	0.0279323
687.142	0.0282379
687.277	0.0279934
687.412	0.0273822
687.547	0.0279934
687.682	0.0270155
687.816	0.02781
687.951	0.0272599
688.086	0.0266487
688.221	0.0276878
688.356	0.0275656
688.491	0.0274433
688.626	0.0284824
688.76	0.0279323
688.895	0.0270155
689.03	0.0267099
689.165	0.0283601
689.3	0.0281156
689.435	0.0279934
689.57	0.026771
689.704	0.0265265
689.839	0.0282379
689.974	0.0281156
690.109	0.028299
690.244	0.0275044
690.379	0.0277489
690.513	0.0278712
690.648	0.0276878
690.783	0.0273822
690.918	0.028299
691.053	0.0284824
691.188	0.0275656
691.323	0.02781
691.457	0.0273211
691.592	0.0278712
691.727	0.0275656
691.862	0.0270766
691.997	0.0277489
692.132	0.0286046
692.266	0.0270766
692.401	0.0283601
692.536	0.0287269
692.671	0.0275044
692.806	0.02781
692.941	0.0279323
693.075	0.0265876
693.21	0.0283601
693.345	0.0279934
693.48	0.0279934
693.615	0.0275656
693.75	0.0279323
693.885	0.0273211
694.019	0.02781
694.154	0.0273822
694.289	0.0279934
694.424	0.0272599
694.559	0.028299
694.694	0.0262209
694.828	0.0281156
694.963	0.0271377
695.098	0.0271988
695.233	0.0273211
695.368	0.0275656
695.503	0.02781
695.637	0.0270155
695.772	0.0283601
695.907	0.0277489
696.042	0.0278712
696.177	0.028299
696.312	0.0276878
696.446	0.02781
696.581	0.0279934
696.716	0.0284212
696.851	0.0268932
696.986	0.0273211
697.12	0.0270155
697.255	0.0277489
697.39	0.0275656
697.525	0.0281768
697.66	0.0271377
697.795	0.0275044
697.929	0.0274433
698.064	0.0272599
698.199	0.0268321
698.334	0.0274433
698.469	0.0275656
698.604	0.0274433
698.738	0.0283601
698.873	0.0277489
699.008	0.0270766
699.143	0.0276878
699.278	0.02781
699.412	0.0276878
699.547	0.0281156
699.682	0.0277489
699.817	0.0279934
699.952	0.0276267
700.087	0.0269543
700.221	0.0282379
700.356	0.0275656
700.491	0.0274433
700.626	0.0274433
700.761	0.02781
700.895	0.0279323
701.03	0.028299
701.165	0.0278712
701.3	0.02781
701.435	0.0279323
701.57	0.0275656
701.704	0.0273822
701.839	0.0281156
701.974	0.02781
702.109	0.0281768
702.244	0.0274433
702.378	0.0276878
702.513	0.0275044
702.648	0.0276878
702.783	0.0280545
702.918	0.0284824
703.052	0.0269543
703.187	0.0276267
703.322	0.0272599
703.457	0.0278712
703.592	0.0272599
703.727	0.0279323
703.861	0.0270766
703.996	0.0280545
704.131	0.0276878
704.266	0.0285435
704.401	0.0284212
704.535	0.0270766
704.67	0.0279323
704.805	0.0271988
704.94	0.0276878
705.075	0.0273822
705.209	0.0270155
705.344	0.0285435
705.479	0.0276267
705.614	0.0279323
705.749	0.0271377
705.883	0.028299
706.018	0.0281768
706.153	0.0273211
706.288	0.0265265
706.423	0.0277489
706.557	0.0275044
706.692	0.0279934
706.827	0.0290325
706.962	0.0273211
707.097	0.0274433
707.231	0.0269543
707.366	0.0277489
707.501	0.0275656
707.636	0.0270766
707.771	0.02781
707.905	0.0280545
708.04	0.0275044
708.175	0.0273822
708.31	0.0273822
708.445	0.0283601
708.579	0.0274433
708.714	0.0276878
708.849	0.0275656
708.984	0.0277489
709.118	0.0277489
709.253	0.0274433
709.388	0.0286657
709.523	0.02781
709.658	0.0280545
709.792	0.0284824
709.927	0.02781
710.062	0.0278712
710.197	0.0276267
710.332	0.0279934
710.466	0.0276878
710.601	0.0272599
710.736	0.0282379
710.871	0.0279934
711.006	0.0281768
711.14	0.0273211
711.275	0.0282379
711.41	0.0275656
711.545	0.0277489
711.679	0.0278712
711.814	0.0279323
711.949	0.0280545
712.084	0.02781
712.219	0.0270766
712.353	0.0286046
712.488	0.0277489
712.623	0.0272599
712.758	0.0273211
712.892	0.0276267
713.027	0.0275044
713.162	0.0275656
713.297	0.0279934
713.432	0.028299
713.566	0.0276267
713.701	0.0281156
713.836	0.0273822
713.971	0.0271988
714.105	0.0279934
714.24	0.0286046
714.375	0.02781
714.51	0.0266487
714.645	0.02781
714.779	0.0286046
714.914	0.0279323
715.049	0.0284824
715.184	0.0279934
715.318	0.0274433
715.453	0.0273822
715.588	0.0278712
715.723	0.0279323
715.858	0.0276878
715.992	0.0279323
716.127	0.0275656
716.262	0.0273211
716.397	0.0277489
716.531	0.0281156
716.666	0.0281156
716.801	0.0277489
716.936	0.0279323
717.07	0.0269543
717.205	0.0270766
717.34	0.0269543
717.475	0.0273211
717.61	0.0281768
717.744	0.02781
717.879	0.0274433
718.014	0.0283601
718.149	0.0273211
718.283	0.0275044
718.418	0.0279323
718.553	0.0281156
718.688	0.02781
718.822	0.0273822
718.957	0.0277489
719.092	0.02781
719.227	0.0284212
719.361	0.0274433
719.496	0.0290936
719.631	0.0275044
719.766	0.0275656
719.9	0.0272599
720.035	0.028299
720.17	0.0277489
720.305	0.0281156
720.44	0.0271988
720.574	0.0277489
720.709	0.0275044
720.844	0.0281768
720.979	0.0278712
721.113	0.0277489
721.248	0.0275656
721.383	0.0282379
721.518	0.0270155
721.652	0.0275656
721.787	0.0276267
721.922	0.0276878
722.057	0.02781
722.191	0.0269543
722.326	0.0279323
722.461	0.026771
722.596	0.0277489
722.73	0.0279323
722.865	0.028299
723	0.0275044
723.135	0.0277489
723.269	0.0275044
723.404	0.0272599
723.539	0.028299
723.674	0.0271377
723.808	0.0273822
723.943	0.0280545
724.078	0.0281768
724.213	0.0277489
724.347	0.0276878
724.482	0.0282379
724.617	0.028788
724.752	0.0277489
724.886	0.0284824
725.021	0.028299
725.156	0.0271377
725.291	0.0281156
725.425	0.0271377
725.56	0.0277489
725.695	0.0277489
725.829	0.0287269
725.964	0.02781
726.099	0.0278712
726.234	0.0272599
726.368	0.028299
726.503	0.0271988
726.638	0.0279323
726.773	0.0272599
726.907	0.0270766
727.042	0.0277489
727.177	0.0280545
727.312	0.028299
727.446	0.0276267
727.581	0.0282379
727.716	0.0277489
727.851	0.0276267
727.985	0.0276878
728.12	0.0279323
728.255	0.0275044
728.389	0.0284212
728.524	0.0273822
728.659	0.0276267
728.794	0.0280545
728.928	0.0286046
729.063	0.028299
729.198	0.0273822
729.333	0.0276267
729.467	0.0276267
729.602	0.0276878
729.737	0.0271988
729.872	0.0281156
730.006	0.0275044
730.141	0.0273822
730.276	0.0271377
730.41	0.028299
730.545	0.0285435
730.68	0.0282379
730.815	0.0276878
730.949	0.0264043
731.084	0.02781
731.219	0.0280545
731.354	0.0284824
731.488	0.028299
731.623	0.02781
731.758	0.0276878
731.892	0.0273211
732.027	0.026771
732.162	0.02781
732.297	0.0280545
732.431	0.02781
732.566	0.02781
732.701	0.0272599
732.835	0.0275656
732.97	0.0270766
733.105	0.0280545
733.24	0.0273822
733.374	0.0279323
733.509	0.0281768
733.644	0.0277489
733.779	0.0281768
733.913	0.0275656
734.048	0.0277489
734.183	0.0276267
734.317	0.0278712
734.452	0.0277489
734.587	0.0281768
734.722	0.0281768
734.856	0.0276878
734.991	0.0271377
735.126	0.0273822
735.26	0.0279323
735.395	0.02781
735.53	0.0276267
735.665	0.0282379
735.799	0.0270766
735.934	0.0274433
736.069	0.0281768
736.203	0.0276878
736.338	0.0277489
736.473	0.0273822
736.607	0.0286657
736.742	0.0277489
736.877	0.0277489
737.012	0.0276878
737.146	0.0283601
737.281	0.0282379
737.416	0.0281156
737.55	0.0281156
737.685	0.0270766
737.82	0.0274433
737.955	0.0273822
738.089	0.0276878
738.224	0.0282379
738.359	0.0278712
738.493	0.0272599
738.628	0.0287269
738.763	0.0278712
738.897	0.0275044
739.032	0.0276267
739.167	0.0275656
739.302	0.0273211
739.436	0.0272599
739.571	0.0273822
739.706	0.0276267
739.84	0.0271377
739.975	0.0270766
740.11	0.0280545
740.244	0.0279323
740.379	0.0275656
740.514	0.0277489
740.649	0.0276878
740.783	0.0278712
740.918	0.0271377
741.053	0.0278712
741.187	0.0276267
741.322	0.0271377
741.457	0.0274433
741.591	0.0271988
741.726	0.0273822
741.861	0.0273822
741.996	0.0275044
742.13	0.0274433
742.265	0.0276878
742.4	0.0275656
742.534	0.0281768
742.669	0.0270155
742.804	0.0277489
742.938	0.0280545
743.073	0.0276878
743.208	0.028299
743.342	0.0275656
743.477	0.0276878
743.612	0.0276878
743.747	0.02781
743.881	0.0273822
744.016	0.0281768
744.151	0.0281156
744.285	0.0271988
744.42	0.0271988
744.555	0.0277489
744.689	0.0272599
744.824	0.0274433
744.959	0.0288491
745.093	0.0280545
745.228	0.0277489
745.363	0.0281768
745.497	0.0271377
745.632	0.0275656
745.767	0.0280545
745.901	0.02781
746.036	0.028299
746.171	0.0278712
746.305	0.0275656
746.44	0.0275044
746.575	0.0272599
746.71	0.0277489
746.844	0.02781
746.979	0.0275656
747.114	0.0273822
747.248	0.0275044
747.383	0.0286657
747.518	0.0276878
747.652	0.0279323
747.787	0.02781
747.922	0.0276878
748.056	0.0279934
748.191	0.0273822
748.326	0.0276267
748.46	0.0286657
748.595	0.0276267
748.73	0.0274433
748.864	0.0280545
748.999	0.0267099
749.134	0.0269543
749.268	0.0280545
749.403	0.028299
749.538	0.0275044
749.672	0.0274433
749.807	0.0281156
749.942	0.0271988
750.076	0.0276267
750.211	0.02781
750.346	0.0273822
750.48	0.0279323
750.615	0.0271377
750.75	0.0281156
750.884	0.0270155
751.019	0.0276267
751.154	0.0279934
751.288	0.0284824
751.423	0.0282379
751.558	0.0279934
751.692	0.0279323
751.827	0.0271988
751.962	0.0282379
752.096	0.0270766
752.231	0.0280545
752.366	0.0269543
752.5	0.0280545
752.635	0.0275044
752.77	0.0273211
752.904	0.0276267
753.039	0.0273822
753.174	0.0274433
753.308	0.0276267
753.443	0.0278712
753.578	0.0279323
753.712	0.0283601
753.847	0.028299
753.982	0.0274433
754.116	0.0276878
754.251	0.0268321
754.386	0.0271988
754.52	0.028299
754.655	0.0277489
754.79	0.0279323
754.924	0.0274433
755.059	0.0292769
755.194	0.0276878
755.328	0.0282379
755.463	0.0283601
755.597	0.0282379
755.732	0.0277489
755.867	0.0267099
756.001	0.0279934
756.136	0.028299
756.271	0.0278712
756.405	0.0273211
756.54	0.0274433
756.675	0.0269543
756.809	0.0273211
756.944	0.0268932
757.079	0.0276267
757.213	0.0275656
757.348	0.0281768
757.483	0.0276878
757.617	0.028299
757.752	0.0279934
757.887	0.0276267
758.021	0.0272599
758.156	0.0273211
758.29	0.0284212
758.425	0.0284824
758.56	0.028299
758.694	0.0287269
758.829	0.0278712
758.964	0.0279323
759.098	0.0273211
759.233	0.0274433
759.368	0.0278712
759.502	0.0274433
759.637	0.0279934
759.772	0.0280545
759.906	0.0280545
760.041	0.0277489
760.175	0.0276267
760.31	0.0273211
760.445	0.0273211
760.579	0.02781
760.714	0.0279934
760.849	0.0277489
760.983	0.0281156
761.118	0.0279323
761.253	0.0279323
761.387	0.0279323
761.522	0.0265876
761.656	0.0279323
761.791	0.0277489
761.926	0.0276878
762.06	0.0276878
762.195	0.02781
762.33	0.0277489
762.464	0.0265876
762.599	0.0273822
762.733	0.0279934
762.868	0.0276267
763.003	0.02781
763.137	0.0279323
763.272	0.0276267
763.407	0.0276267
763.541	0.0275044
763.676	0.0271988
763.811	0.028299
763.945	0.0274433
764.08	0.0283601
764.214	0.0281768
764.349	0.0274433
764.484	0.0273822
764.618	0.0270766
764.753	0.0270766
764.888	0.0278712
765.022	0.0282379
765.157	0.0284212
765.291	0.02781
765.426	0.0280545
765.561	0.0270766
765.695	0.0277489
765.83	0.0284824
765.965	0.028788
766.099	0.0278712
766.234	0.0273211
766.368	0.0277489
766.503	0.028299
766.638	0.0271377
766.772	0.0271988
766.907	0.0277489
767.041	0.0276267
767.176	0.0273822
767.311	0.0276267
767.445	0.0275656
767.58	0.0279323
767.715	0.0275044
767.849	0.0276878
767.984	0.0271377
768.118	0.0275044
768.253	0.0273822
768.388	0.0271988
768.522	0.0276267
768.657	0.0285435
768.791	0.0273822
768.926	0.0272599
769.061	0.0271377
769.195	0.0275656
769.33	0.0275656
769.465	0.0279323
769.599	0.0286046
769.734	0.0265876
769.868	0.0270766
770.003	0.0272599
770.138	0.0266487
770.272	0.0275044
770.407	0.02781
770.541	0.0269543
770.676	0.0273211
770.811	0.0281156
770.945	0.0270155
771.08	0.0279323
771.214	0.0280545
771.349	0.0283601
771.484	0.0273822
771.618	0.0279323
771.753	0.0275044
771.887	0.0277489
772.022	0.02781
772.157	0.0285435
772.291	0.0273822
772.426	0.0280545
772.56	0.0276267
772.695	0.0284212
772.83	0.0271988
772.964	0.0283601
773.099	0.0283601
773.233	0.0286657
773.368	0.0273211
773.503	0.0283601
773.637	0.0281768
773.772	0.0290936
773.906	0.0275656
774.041	0.0281156
774.176	0.0276267
774.31	0.0277489
774.445	0.0270155
774.579	0.0278712
774.714	0.0280545
774.849	0.0274433
774.983	0.0277489
775.118	0.0273211
775.252	0.0276878
775.387	0.0276878
775.522	0.0276267
775.656	0.0277489
775.791	0.0278712
775.925	0.0284212
776.06	0.028788
776.195	0.0278712
776.329	0.0274433
776.464	0.0280545
776.598	0.0280545
776.733	0.0281768
776.868	0.028299
777.002	0.0279934
777.137	0.0279934
777.271	0.0283601
777.406	0.0277489
777.54	0.0272599
777.675	0.0283601
777.81	0.0284824
777.944	0.0272599
778.079	0.0276878
778.213	0.0280545
778.348	0.0280545
778.483	0.0279934
778.617	0.0281156
778.752	0.0281768
778.886	0.0284212
779.021	0.0275656
779.155	0.0276267
779.29	0.0271377
779.425	0.0274433
779.559	0.0274433
779.694	0.0266487
779.828	0.0280545
779.963	0.0276878
780.098	0.0269543
780.232	0.0275656
780.367	0.0281768
780.501	0.0270766
780.636	0.0279323
780.77	0.0281156
780.905	0.0279934
781.04	0.0271988
781.174	0.0273822
781.309	0.0279934
781.443	0.0280545
781.578	0.0282379
781.712	0.0270155
781.847	0.0273822
781.982	0.0270766
782.116	0.0279323
782.251	0.0281768
782.385	0.0277489
782.52	0.0269543
782.654	0.0280545
782.789	0.0269543
782.924	0.0274433
783.058	0.0275044
783.193	0.0275656
783.327	0.0277489
783.462	0.0271377
783.596	0.028299
783.731	0.0284212
783.866	0.02781
784	0.0279323
784.135	0.0280545
784.269	0.0278712
784.404	0.026771
784.538	0.028299
784.673	0.0275656
784.808	0.0275656
784.942	0.0281156
785.077	0.0277489
785.211	0.0284212
785.346	0.0281156
785.48	0.0271988
785.615	0.02781
785.75	0.0283601
785.884	0.0274433
786.019	0.0278712
786.153	0.0286046
786.288	0.0278712
786.422	0.0279323
786.557	0.0277489
786.691	0.0270155
786.826	0.0278712
786.961	0.0276267
787.095	0.0274433
787.23	0.0276267
787.364	0.0274433
787.499	0.0281768
787.633	0.0277489
787.768	0.0281768
787.902	0.026771
788.037	0.0268932
788.172	0.0279323
788.306	0.0281156
788.441	0.0279323
788.575	0.0282379
788.71	0.0279323
788.844	0.0271988
788.979	0.0277489
789.113	0.0285435
789.248	0.0273822
789.383	0.0281768
789.517	0.0270766
789.652	0.0273822
789.786	0.0274433
789.921	0.0275656
790.055	0.0275656
790.19	0.0277489
790.324	0.0276878
790.459	0.0279323
790.594	0.0272599
790.728	0.0268932
790.863	0.0279934
790.997	0.0277489
791.132	0.0277489
791.266	0.0279934
791.401	0.0267099
791.535	0.0279323
791.67	0.028299
791.804	0.0286046
791.939	0.0269543
792.074	0.0279934
792.208	0.0281768
792.343	0.0275656
792.477	0.0281156
792.612	0.0284824
792.746	0.0277489
792.881	0.028299
793.015	0.0276878
793.15	0.0278712
793.284	0.02781
793.419	0.0279934
793.553	0.0273822
793.688	0.0270766
793.823	0.0271988
793.957	0.0282379
794.092	0.02781
794.226	0.0278712
794.361	0.0281768
794.495	0.02781
794.63	0.0274433
794.764	0.0280545
794.899	0.0275044
795.033	0.0280545
795.168	0.0275656
795.302	0.0283601
795.437	0.0280545
795.572	0.0276267
795.706	0.0281156
795.841	0.0273822
795.975	0.0280545
796.11	0.0280545
796.244	0.0286046
796.379	0.0273211
796.513	0.0271988
796.648	0.02781
796.782	0.028299
796.917	0.0283601
797.051	0.0274433
797.186	0.0279323
797.32	0.0280545
797.455	0.02781
797.589	0.0271377
797.724	0.0281768
797.859	0.0271377
797.993	0.0273822
798.128	0.0284824
798.262	0.0283601
798.397	0.0278712
798.531	0.0276878
798.666	0.0279323
798.8	0.0275044
798.935	0.02781
799.069	0.0277489
799.204	0.0289102
799.338	0.0277489
799.473	0.0280545
799.607	0.0281156
799.742	0.0276267
799.876	0.0276878
800.011	0.0286046
800.145	0.0284212
800.28	0.0276878
800.414	0.0279323
800.549	0.0279323
800.683	0.0278712
800.818	0.0284824
800.953	0.0281768
801.087	0.0286046
801.222	0.0282379
801.356	0.0276878
801.491	0.028299
801.625	0.0284824
801.76	0.0281768
801.894	0.0276878
802.029	0.0282379
802.163	0.028299
802.298	0.0285435
802.432	0.02781
802.567	0.0280545
802.701	0.028299
802.836	0.0282379
802.97	0.028299
803.105	0.0286046
803.239	0.0283601
803.374	0.0280545
803.508	0.0289102
803.643	0.0284212
803.777	0.0280545
803.912	0.0284824
804.046	0.0280545
804.181	0.0288491
804.315	0.0276878
804.45	0.0278712
804.584	0.0279934
804.719	0.0279323
804.853	0.0290936
804.988	0.0292769
805.122	0.0279934
805.257	0.0281768
805.391	0.0294603
805.526	0.0291547
805.66	0.028788
805.795	0.0284212
805.929	0.0287269
806.064	0.0286657
806.198	0.0289102
806.333	0.0297048
806.467	0.030316
806.602	0.0287269
806.736	0.0292158
806.871	0.0293381
807.005	0.0299493
807.14	0.0293381
807.274	0.0301326
807.409	0.0301326
807.543	0.0295214
807.678	0.0292769
807.812	0.0305605
807.947	0.0301938
808.081	0.0304382
808.216	0.030805
808.35	0.030316
808.485	0.030805
808.619	0.0304382
808.754	0.0322107
808.888	0.0314162
809.023	0.0311717
809.157	0.0316607
809.292	0.0319051
809.426	0.0323941
809.561	0.0329442
809.695	0.0344111
809.83	0.03435
809.964	0.0345333
810.099	0.0342889
810.233	0.0372227
810.368	0.0366726
810.502	0.0380172
810.637	0.0385673
810.771	0.0391174
810.906	0.0415011
811.04	0.0430292
811.175	0.0445572
811.309	0.0489579
811.444	0.0538476
811.578	0.0657662
811.713	0.0962655
811.847	0.169427
811.982	0.245951
812.116	0.306399
812.251	0.553939
812.385	0.883198
812.519	1
812.654	0.994316
812.788	0.997372
812.923	0.995966
813.057	0.993216
813.192	0.987959
813.326	0.986859
813.461	0.979524
813.595	0.979647
813.73	0.97164
813.864	0.970662
813.999	0.975185
814.133	0.958743
814.268	0.965772
814.402	0.958804
814.537	0.845303
814.671	0.652038
814.806	0.383045
814.94	0.131532
815.075	0.114602
815.209	0.174317
815.344	0.112401
815.478	0.0463297
815.612	0.0397897
815.747	0.0363058
815.881	0.0369171
816.016	0.0355113
816.15	0.0334943
816.285	0.0341055
816.419	0.0332498
816.554	0.0320885
816.688	0.0330053
816.823	0.0322107
816.957	0.0309272
817.092	0.031844
817.226	0.0312939
817.361	0.0324552
817.495	0.0307438
817.63	0.0306216
817.764	0.0306827
817.898	0.0305605
818.033	0.0311717
818.167	0.0302549
818.302	0.0303771
818.436	0.0297048
818.571	0.0292158
818.705	0.0290325
818.84	0.0297659
818.974	0.0297048
819.109	0.029827
819.243	0.0292769
819.378	0.0300104
819.512	0.0290936
819.646	0.0285435
819.781	0.0284212
819.915	0.0281768
820.05	0.0286046
820.184	0.0290936
820.319	0.0293381
820.453	0.0281156
820.588	0.0292158
820.722	0.028299
820.857	0.0289102
820.991	0.0277489
821.126	0.0290325
821.26	0.0290936
821.394	0.0282379
821.529	0.0286657
821.663	0.0286657
821.798	0.0275656
821.932	0.0277489
822.067	0.0293992
822.201	0.028299
822.336	0.0276267
822.47	0.028788
822.605	0.0284824
822.739	0.0290325
822.873	0.0278712
823.008	0.0281156
823.142	0.0287269
823.277	0.0280545
823.411	0.0285435
823.546	0.0285435
823.68	0.0287269
823.815	0.028299
823.949	0.0282379
824.083	0.0279934
824.218	0.0284212
824.352	0.0281156
824.487	0.0283601
824.621	0.0286657
824.756	0.02781
824.89	0.02781
825.025	0.0271988
825.159	0.0284824
825.293	0.0276878
825.428	0.0286046
825.562	0.0275044
825.697	0.0282379
825.831	0.0274433
825.966	0.0272599
826.1	0.0276878
826.235	0.0277489
826.369	0.0273211
826.503	0.0274433
826.638	0.0276267
826.772	0.0279934
826.907	0.0277489
827.041	0.0276267
827.176	0.0280545
827.31	0.0281768
827.445	0.0274433
827.579	0.0275044
827.713	0.0281156
827.848	0.0279323
827.982	0.028299
828.117	0.0281156
828.251	0.0272599
828.386	0.0286046
828.52	0.0277489
828.654	0.0279323
828.789	0.0275656
828.923	0.0277489
829.058	0.0271377
829.192	0.0281156
829.327	0.0274433
829.461	0.0272599
829.596	0.0277489
829.73	0.0286046
829.864	0.0276878
829.999	0.0280545
830.133	0.0276878
830.268	0.0280545
830.402	0.0273822
830.537	0.0276878
830.671	0.0281156
830.805	0.0277489
830.94	0.0287269
831.074	0.0281156
831.209	0.0276267
831.343	0.0270155
831.478	0.0273211
831.612	0.028788
831.746	0.02781
831.881	0.0278712
832.015	0.0281768
832.15	0.0281768
832.284	0.0276878
832.418	0.02781
832.553	0.0276878
832.687	0.0281156
832.822	0.0281156
832.956	0.0275044
833.091	0.0273211
833.225	0.0277489
833.359	0.0282379
833.494	0.0282379
833.628	0.0281768
833.763	0.0280545
833.897	0.0270155
834.032	0.0280545
834.166	0.0277489
834.3	0.0286046
834.435	0.0267099
834.569	0.028299
834.704	0.0281156
834.838	0.0276878
834.972	0.0279934
835.107	0.0275656
835.241	0.0275044
835.376	0.02781
835.51	0.0265876
835.645	0.0271377
835.779	0.0281768
835.913	0.02781
836.048	0.0276267
836.182	0.0291547
836.317	0.0279323
836.451	0.0271377
836.585	0.0280545
836.72	0.0273822
836.854	0.0273211
836.989	0.0283601
837.123	0.0272599
837.257	0.0277489
837.392	0.0275044
837.526	0.0277489
837.661	0.0283601
837.795	0.0272599
837.929	0.0279934
838.064	0.0285435
838.198	0.0276267
838.333	0.0276878
838.467	0.02781
838.602	0.0281156
838.736	0.0275044
838.87	0.0273822
839.005	0.0284212
839.139	0.0276267
839.274	0.0278712
839.408	0.0279323
839.542	0.0276267
839.677	0.0283601
839.811	0.0282379
839.946	0.0275044
840.08	0.0265265
840.214	0.0277489
840.349	0.0281156
840.483	0.0279934
840.618	0.0281768
840.752	0.0281156
840.886	0.0276267
841.021	0.0279323
841.155	0.0271988
841.29	0.028299
841.424	0.0270766
841.558	0.0271377
841.693	0.0279323
841.827	0.02781
841.961	0.02781
842.096	0.0286046
842.23	0.0276878
842.365	0.0276878
842.499	0.0279934
842.633	0.02781
842.768	0.0274433
842.902	0.0274433
843.037	0.0279934
843.171	0.0284212
843.305	0.02781
843.44	0.0274433
843.574	0.026771
843.709	0.0275044
843.843	0.0280545
843.977	0.0281156
844.112	0.0282379
844.246	0.0277489
844.381	0.0281768
844.515	0.02781
844.649	0.0276267
844.784	0.0276878
844.918	0.0278712
845.052	0.0273822
845.187	0.0281768
845.321	0.0275044
845.456	0.0276878
845.59	0.02781
845.724	0.0275656
845.859	0.0280545
845.993	0.0272599
846.128	0.0275044
846.262	0.0279934
846.396	0.0279323
846.531	0.0273822
846.665	0.0281768
846.799	0.0268321
846.934	0.0273211
847.068	0.0275044
847.203	0.0275656
847.337	0.0280545
847.471	0.0281768
847.606	0.0271377
847.74	0.0281768
847.874	0.0274433
848.009	0.0280545
848.143	0.0276267
848.278	0.0272599
848.412	0.0274433
848.546	0.0277489
848.681	0.0275044
848.815	0.0275656
848.949	0.0271377
849.084	0.0286657
849.218	0.0277489
849.353	0.0284824
849.487	0.0273822
849.621	0.0281768
849.756	0.028299
849.89	0.02781
850.024	0.0274433
850.159	0.0281156
850.293	0.0273822
850.428	0.0281156
850.562	0.0277489
850.696	0.0270766
850.831	0.0277489
850.965	0.0269543
851.099	0.0280545
851.234	0.0268321
851.368	0.0276878
851.502	0.0286657
851.637	0.0284824
851.771	0.02781
851.906	0.0276267
852.04	0.0271377
852.174	0.0272599
852.309	0.0275656
852.443	0.0275044
852.577	0.0271988
852.712	0.0274433
852.846	0.0275656
852.98	0.0272599
853.115	0.0272599
853.249	0.0273211
853.384	0.0284824
853.518	0.0276267
853.652	0.0276878
853.787	0.0272599
853.921	0.0275656
854.055	0.0275044
854.19	0.0275656
854.324	0.0284824
854.458	0.0276267
854.593	0.0270155
854.727	0.0274433
854.861	0.0281768
854.996	0.0266487
855.13	0.0275656
855.265	0.0273822
855.399	0.0276267
855.533	0.0277489
855.668	0.0278712
855.802	0.0272599
855.936	0.0279323
856.071	0.0283601
856.205	0.0275656
856.339	0.0271377
856.474	0.0273211
856.608	0.0276267
856.742	0.0284212
856.877	0.0275044
857.011	0.0277489
857.145	0.0276878
857.28	0.0282379
857.414	0.0286657
857.549	0.028299
857.683	0.0270155
857.817	0.0275656
857.952	0.0270155
858.086	0.0275044
858.22	0.0280545
858.355	0.02781
858.489	0.0271988
858.623	0.0274433
858.758	0.0280545
858.892	0.0279323
859.026	0.0272599
859.161	0.0273211
859.295	0.0271377
859.429	0.0275044
859.564	0.02781
859.698	0.0275656
859.832	0.0281156
859.967	0.0279323
860.101	0.0276267
860.235	0.0286657
860.37	0.0275044
860.504	0.0279323
860.638	0.0278712
860.773	0.0282379
860.907	0.02781
861.041	0.0277489
861.176	0.0273822
861.31	0.0281768
861.444	0.0273822
861.579	0.0268321
861.713	0.0277489
861.847	0.02781
861.982	0.0271988
862.116	0.02781
862.25	0.0275044
862.385	0.0275044
862.519	0.0280545
862.653	0.0272599
862.788	0.0276878
862.922	0.0287269
863.056	0.028299
863.191	0.0281156
863.325	0.0273822
863.459	0.028299
863.594	0.0276267
863.728	0.0272599
863.862	0.026771
863.997	0.0276267
864.131	0.0286657
864.265	0.0280545
864.4	0.0279323
864.534	0.0280545
864.668	0.0281768
864.803	0.0280545
864.937	0.0281768
865.071	0.0278712
865.206	0.0287269
865.34	0.0276878
865.474	0.0276267
865.609	0.0281156
865.743	0.0273822
865.877	0.0271988
866.012	0.0274433
866.146	0.0275656
866.28	0.0269543
866.415	0.0278712
866.549	0.0284824
866.683	0.0275044
866.818	0.0277489
866.952	0.0276878
867.086	0.0274433
867.221	0.0270155
867.355	0.0277489
867.489	0.0266487
867.623	0.0276878
867.758	0.0271377
867.892	0.0273822
868.026	0.0279323
868.161	0.02781
868.295	0.028299
868.429	0.0275044
868.564	0.0277489
868.698	0.0273211
868.832	0.0280545
868.967	0.0277489
869.101	0.0270155
869.235	0.0277489
869.37	0.0279934
869.504	0.0272599
869.638	0.02781
869.773	0.0279934
869.907	0.0274433
870.041	0.0276267
870.175	0.0279323
870.31	0.0265876
870.444	0.0279323
870.578	0.0270155
870.713	0.0273211
870.847	0.0284824
870.981	0.0277489
871.116	0.0275656
871.25	0.02781
871.384	0.0276878
871.519	0.0279934
871.653	0.0268321
871.787	0.0281768
871.921	0.0282379
872.056	0.0280545
872.19	0.0275656
872.324	0.0273822
872.459	0.0283601
872.593	0.0278712
872.727	0.0284824
872.862	0.0277489
872.996	0.0278712
873.13	0.0275656
873.264	0.0276267
873.399	0.0277489
873.533	0.0277489
873.667	0.0275656
873.802	0.0277489
873.936	0.0276267
874.07	0.0276267
874.205	0.0281156
874.339	0.0281156
874.473	0.0275044
874.607	0.0276267
874.742	0.0281156
874.876	0.0274433
875.01	0.0271377
875.145	0.0278712
875.279	0.0270155
875.413	0.0278712
875.548	0.026282
875.682	0.0274433
875.816	0.0272599
875.95	0.0282379
876.085	0.0279323
876.219	0.0268321
876.353	0.0273822
876.488	0.0281156
876.622	0.0278712
876.756	0.0283601
876.89	0.0271377
877.025	0.0277489
877.159	0.0276878
877.293	0.0284824
877.428	0.0281156
877.562	0.0273211
877.696	0.02781
877.83	0.0279323
877.965	0.0278712
878.099	0.0280545
878.233	0.0290936
878.368	0.02781
878.502	0.0273211
878.636	0.0270155
878.77	0.0281768
878.905	0.0277489
879.039	0.0275656
879.173	0.0279934
879.308	0.0287269
879.442	0.0269543
879.576	0.0279934
879.71	0.0272599
879.845	0.0281156
879.979	0.0275656
880.113	0.0269543
880.248	0.0279323
880.382	0.0269543
880.516	0.0277489
880.65	0.0273822
880.785	0.028299
880.919	0.0269543
881.053	0.0276878
881.188	0.0281156
881.322	0.0269543
881.456	0.0279934
881.59	0.0281156
881.725	0.0276878
881.859	0.0275044
881.993	0.0281768
882.127	0.0280545
882.262	0.0288491
882.396	0.0268932
882.53	0.0276267
882.665	0.0282379
882.799	0.0277489
882.933	0.0283601
883.067	0.0277489
883.202	0.0277489
883.336	0.02781
883.47	0.0272599
883.604	0.0278712
883.739	0.0270766
883.873	0.0278712
884.007	0.0281768
884.142	0.0281768
884.276	0.028788
884.41	0.0270766
884.544	0.0279323
884.679	0.0283601
884.813	0.0272599
884.947	0.0273211
885.081	0.0276267
885.216	0.0280545
885.35	0.0271988
885.484	0.0276878
885.618	0.0276878
885.753	0.0272599
885.887	0.0273211
886.021	0.0276878
886.155	0.028299
886.29	0.0275044
886.424	0.0279323
886.558	0.0276878
886.693	0.0279323
886.827	0.0284212
886.961	0.0275656
887.095	0.0273822
887.23	0.0276878
887.364	0.0272599
887.498	0.0275656
887.632	0.0273211
887.767	0.0278712
887.901	0.0275044
888.035	0.0279934
888.169	0.0274433
888.304	0.02781
888.438	0.0282379
888.572	0.0269543
888.706	0.0281156
888.841	0.0279323
888.975	0.026771
889.109	0.0275044
889.243	0.0271377
889.378	0.0272599
889.512	0.0270766
889.646	0.0274433
889.78	0.0279323
889.915	0.0277489
890.049	0.0276267
890.183	0.0276267
890.317	0.0275656
890.452	0.0275044
890.586	0.0276267
890.72	0.0276267
890.854	0.0275044
890.989	0.0281768
891.123	0.0283601
891.257	0.0275044
891.391	0.0281156
891.526	0.0271988
891.66	0.0280545
891.794	0.0273822
891.928	0.0271988
892.063	0.0269543
892.197	0.0279323
892.331	0.0277489
892.465	0.0282379
892.6	0.0265265
892.734	0.0276267
892.868	0.0271377
893.002	0.0282379
893.137	0.0275044
893.271	0.0276267
893.405	0.0280545
893.539	0.0273211
893.674	0.0275044
893.808	0.028299
893.942	0.0279323
894.076	0.0278712
894.21	0.028299
894.345	0.0276267
894.479	0.0275044
894.613	0.0280545
894.747	0.02781
894.882	0.0270766
895.016	0.0279934
895.15	0.0282379
895.284	0.028299
895.419	0.0276267
895.553	0.0279934
895.687	0.0282379
895.821	0.0277489
895.956	0.0279323
896.09	0.0271377
896.224	0.0270766
896.358	0.0280545
896.492	0.0279934
896.627	0.0276267
896.761	0.0272599
896.895	0.0281768
897.029	0.0271988
897.164	0.0277489
897.298	0.0270766
897.432	0.028299
897.566	0.0284212
897.701	0.0275044
897.835	0.0276878
897.969	0.0281156
898.103	0.0280545
898.237	0.0270766
898.372	0.0281768
898.506	0.0279934
898.64	0.0274433
898.774	0.0278712
898.909	0.0281768
899.043	0.0284824
899.177	0.0273211
899.311	0.0276878
899.445	0.02781
899.58	0.0271988
899.714	0.0274433
899.848	0.0270766
899.982	0.0278712
900.117	0.0284824
900.251	0.0275044
900.385	0.0272599
900.519	0.0276878
900.653	0.0279323
900.788	0.0276878
900.922	0.0276267
901.056	0.028299
901.19	0.0276878
901.325	0.0284824
901.459	0.0276878
901.593	0.0279934
901.727	0.0284824
901.861	0.0276267
901.996	0.0275044
902.13	0.0278712
902.264	0.0276878
902.398	0.0279934
902.532	0.0276267
902.667	0.0276878
902.801	0.0288491
902.935	0.0281156
903.069	0.0277489
903.204	0.0271377
903.338	0.028299
903.472	0.0278712
903.606	0.0275044
903.74	0.0279323
903.875	0.0274433
904.009	0.0273822
904.143	0.0273211
904.277	0.0279934
904.411	0.0271988
904.546	0.0276878
904.68	0.0275656
904.814	0.0279323
904.948	0.0279934
905.082	0.0275656
905.217	0.0281156
905.351	0.0279323
905.485	0.0278712
905.619	0.0273211
905.753	0.0268932
905.888	0.0277489
906.022	0.0281156
906.156	0.0276878
906.29	0.0280545
906.424	0.0273822
906.559	0.0279323
906.693	0.0277489
906.827	0.0270766
906.961	0.0282379
907.095	0.0273211
907.23	0.0281768
907.364	0.0278712
907.498	0.0276878
907.632	0.0281156
907.766	0.0273211
907.901	0.0284212
908.035	0.0275656
908.169	0.0276878
908.303	0.0273822
908.437	0.0275656
908.572	0.0274433
908.706	0.0276878
908.84	0.02781
908.974	0.02781
909.108	0.0276878
909.243	0.0275656
909.377	0.0277489
909.511	0.0279934
909.645	0.0273211
909.779	0.0275656
909.914	0.0279934
910.048	0.0269543
910.182	0.0281156
910.316	0.0273211
910.45	0.0275656
910.585	0.0275044
910.719	0.0275044
910.853	0.02781
910.987	0.0281156
911.121	0.0276267
911.255	0.0277489
911.39	0.0273822
911.524	0.0275656
911.658	0.0277489
911.792	0.0275656
911.926	0.028299
912.061	0.028299
912.195	0.0275656
912.329	0.0275044
912.463	0.02781
912.597	0.0275656
912.732	0.0277489
912.866	0.0269543
913	0.0276878
913.134	0.0275656
913.268	0.0275044
913.402	0.0275044
913.537	0.0273211
913.671	0.0277489
913.805	0.0275656
913.939	0.0284824
914.073	0.028299
914.208	0.0272599
914.342	0.0273822
914.476	0.0275656
914.61	0.0277489
914.744	0.0273211
914.878	0.0277489
915.013	0.0268932
915.147	0.0274433
915.281	0.0276878
915.415	0.0273211
915.549	0.0275044
915.683	0.0284212
915.818	0.0279323
915.952	0.0275044
916.086	0.0276878
916.22	0.0276878
916.354	0.02781
916.488	0.0276267
916.623	0.0286046
916.757	0.0268321
916.891	0.0271377
917.025	0.0275656
917.159	0.0270766
917.293	0.0274433
917.428	0.028299
917.562	0.02781
917.696	0.0277489
917.83	0.0273211
917.964	0.02781
918.098	0.0280545
918.233	0.0270766
918.367	0.0276878
918.501	0.0282379
918.635	0.0269543
918.769	0.0277489
918.903	0.0281156
919.038	0.0273211
919.172	0.0279934
919.306	0.0273822
919.44	0.0279323
919.574	0.0270155
919.708	0.0282379
919.843	0.02781
919.977	0.0289102
920.111	0.0281156
920.245	0.0271377
920.379	0.028299
920.513	0.0280545
920.648	0.0279934
920.782	0.028299
920.916	0.0277489
921.05	0.0271988
921.184	0.0273822
921.318	0.0266487
921.453	0.0274433
921.587	0.0279323
921.721	0.0284824
921.855	0.0279934
921.989	0.0265265
922.123	0.0273211
922.257	0.0276878
922.392	0.0274433
922.526	0.0278712
922.66	0.02781
922.794	0.0278712
922.928	0.0281156
923.062	0.0275044
923.197	0.0270155
923.331	0.0279934
923.465	0.0276267
923.599	0.0275044
923.733	0.0266487
923.867	0.0278712
924.001	0.0276878
924.136	0.0270155
924.27	0.02781
924.404	0.0275656
924.538	0.0275656
924.672	0.0281156
924.806	0.0279323
924.94	0.0274433
925.075	0.0281156
925.209	0.0268932
925.343	0.0279934
925.477	0.0275656
925.611	0.0279323
925.745	0.0262209
925.879	0.0275656
926.014	0.0276878
926.148	0.0284824
926.282	0.0275656
926.416	0.0268932
926.55	0.0276878
926.684	0.0274433
926.818	0.0279323
926.953	0.0276267
927.087	0.0280545
927.221	0.0277489
927.355	0.0282379
927.489	0.0281156
927.623	0.0277489
927.757	0.0273211
927.892	0.0272599
928.026	0.0284824
928.16	0.0275656
928.294	0.0281156
928.428	0.0279323
928.562	0.0279934
928.696	0.0276267
928.831	0.0267099
928.965	0.0276878
929.099	0.0271988
929.233	0.0275656
929.367	0.0273822
929.501	0.0283601
929.635	0.0283601
929.769	0.0268321
929.904	0.0276267
930.038	0.0271377
930.172	0.0277489
930.306	0.0276878
930.44	0.0271377
930.574	0.0284824
930.708	0.0277489
930.843	0.0271377
930.977	0.0276267
931.111	0.0278712
931.245	0.0271377
931.379	0.0277489
931.513	0.02781
931.647	0.0273822
931.781	0.0281156
931.916	0.0275044
932.05	0.0265876
932.184	0.0275656
932.318	0.0270766
932.452	0.0275656
932.586	0.0274433
932.72	0.02781
932.854	0.02781
932.989	0.0276878
933.123	0.0275044
933.257	0.0273211
933.391	0.0281156
933.525	0.0280545
933.659	0.0275656
933.793	0.0275044
933.927	0.0283601
934.061	0.0280545
934.196	0.0278712
934.33	0.0281156
934.464	0.0273822
934.598	0.0276267
934.732	0.0270766
934.866	0.0270766
935	0.0265876
935.134	0.0275044
935.269	0.0277489
935.403	0.0273211
935.537	0.0281156
935.671	0.0274433
935.805	0.0275656
935.939	0.0283601
936.073	0.0276267
936.207	0.0274433
936.341	0.0271988
936.476	0.0270155
936.61	0.02781
936.744	0.0277489
936.878	0.0275044
937.012	0.0289102
937.146	0.0288491
937.28	0.0274433
937.414	0.0276267
937.548	0.028299
937.683	0.0276878
937.817	0.0276878
937.951	0.0278712
938.085	0.0276267
938.219	0.0274433
938.353	0.0276267
938.487	0.0277489
938.621	0.0282379
938.755	0.0284212
938.889	0.0274433
939.024	0.0279323
939.158	0.02781
939.292	0.0275656
939.426	0.02781
939.56	0.0272599
939.694	0.0273211
939.828	0.0274433
939.962	0.0284212
940.096	0.0278712
940.231	0.0280545
940.365	0.0278712
940.499	0.0275656
940.633	0.0273211
940.767	0.0272599
940.901	0.0281768
941.035	0.0281768
941.169	0.0277489
941.303	0.0276267
941.437	0.026771
941.571	0.028299
941.706	0.0275656
941.84	0.0275656
941.974	0.0284824
942.108	0.0279934
942.242	0.0276878
942.376	0.0266487
942.51	0.0286046
942.644	0.0278712
942.778	0.0284212
942.912	0.02781
943.047	0.0281156
943.181	0.0274433
943.315	0.0272599
943.449	0.0284824
943.583	0.02781
943.717	0.0273822
943.851	0.0270766
943.985	0.0281768
944.119	0.0281768
944.253	0.0281768
944.387	0.0281156
944.522	0.0280545
944.656	0.0276878
944.79	0.0273211
944.924	0.0279323
945.058	0.0279323
945.192	0.0282379
945.326	0.0277489
945.46	0.0286046
945.594	0.0275044
945.728	0.0276878
945.862	0.0268321
945.996	0.0271988
946.131	0.0284212
946.265	0.0283601
946.399	0.0286657
946.533	0.0279934
946.667	0.0272599
946.801	0.0275656
946.935	0.0279323
947.069	0.0286657
947.203	0.0278712
947.337	0.0275656
947.471	0.0280545
947.605	0.0272599
947.739	0.0285435
947.874	0.0274433
948.008	0.0281768
948.142	0.0275044
948.276	0.0283601
948.41	0.0276878
948.544	0.0273211
948.678	0.02781
948.812	0.0279323
948.946	0.0282379
949.08	0.0272599
949.214	0.0276878
949.348	0.0275656
949.482	0.0280545
949.617	0.0280545
949.751	0.0277489
949.885	0.0269543
950.019	0.0270155
950.153	0.0275656
950.287	0.0277489
950.421	0.0278712
950.555	0.0270766
950.689	0.0273822
950.823	0.0276267
950.957	0.0275656
951.091	0.0284212
951.225	0.0275656
951.359	0.0279323
951.493	0.0273211
951.628	0.0278712
951.762	0.0277489
951.896	0.0275656
952.03	0.0275044
952.164	0.0275656
952.298	0.0265876
952.432	0.0272599
952.566	0.0275656
952.7	0.0268321
952.834	0.0270766
952.968	0.0270155
953.102	0.0281768
953.236	0.0281768
953.37	0.0274433
953.504	0.0276878
953.639	0.0273211
953.773	0.0275044
953.907	0.0270766
954.041	0.0274433
954.175	0.0265876
954.309	0.0278712
954.443	0.0279934
954.577	0.0269543
954.711	0.0276267
954.845	0.0279323
954.979	0.0272599
955.113	0.0284212
955.247	0.0289102
955.381	0.0279323
955.515	0.0281156
955.649	0.0273822
955.783	0.0276878
955.917	0.0282379
956.052	0.0268932
956.186	0.0275044
956.32	0.028299
956.454	0.0271988
956.588	0.0272599
956.722	0.0276267
956.856	0.0276267
956.99	0.0281156
957.124	0.0269543
957.258	0.028788
957.392	0.0280545
957.526	0.0277489
957.66	0.0280545
957.794	0.0280545
957.928	0.0282379
958.062	0.0279934
958.196	0.0276267
958.33	0.0281156
958.464	0.0276267
958.598	0.0276267
958.733	0.0273822
958.867	0.0277489
959.001	0.0265876
959.135	0.0277489
959.269	0.0273211
959.403	0.0279934
959.537	0.0272599
959.671	0.0274433
959.805	0.0275044
959.939	0.0282379
960.073	0.0271988
960.207	0.0283601
960.341	0.0279934
960.475	0.0275656
960.609	0.0279323
960.743	0.0276267
960.877	0.0281768
961.011	0.0275656
961.145	0.0279934
961.279	0.02781
961.413	0.0271988
961.547	0.0280545
961.681	0.0280545
961.815	0.0268321
961.949	0.0284212
962.083	0.0277489
962.218	0.0284824
962.352	0.0265265
962.486	0.0286046
962.62	0.0273822
962.754	0.0272599
962.888	0.0267099
963.022	0.0271988
963.156	0.0275044
963.29	0.02781
963.424	0.0282379
963.558	0.0284212
963.692	0.0276878
963.826	0.0276878
963.96	0.0284212
964.094	0.02781
964.228	0.0290325
964.362	0.0282379
964.496	0.0283601
964.63	0.0268321
964.764	0.0284824
964.898	0.0274433
965.032	0.0268932
965.166	0.0271988
965.3	0.0271377
965.434	0.0267099
965.568	0.02781
965.702	0.0276878
965.836	0.0281768
965.97	0.0284212
966.104	0.0275656
966.238	0.0283601
966.372	0.0271988
966.506	0.0270766
966.64	0.0282379
966.774	0.0285435
966.908	0.0278712
967.043	0.0268932
967.177	0.0275656
967.311	0.0274433
967.445	0.0275656
967.579	0.0281768
967.713	0.0279934
967.847	0.0282379
967.981	0.0281156
968.115	0.0279323
968.249	0.0268932
968.383	0.02781
968.517	0.0274433
968.651	0.0276878
968.785	0.0280545
968.919	0.0270155
969.053	0.0275656
969.187	0.0273211
969.321	0.0277489
969.455	0.0277489
969.589	0.0282379
969.723	0.0280545
969.857	0.0286046
969.991	0.0286657
970.125	0.0273822
970.259	0.0271377
970.393	0.0278712
970.527	0.0275656
970.661	0.0279323
970.795	0.0275656
970.929	0.0278712
971.063	0.0273211
971.197	0.0278712
971.331	0.0275656
971.465	0.0273822
971.599	0.0277489
971.733	0.0279323
971.867	0.0281156
972.001	0.0282379
972.135	0.0275044
972.269	0.0281768
972.403	0.0279934
972.537	0.028299
972.671	0.0273822
972.805	0.0276878
972.939	0.0281156
973.073	0.0271988
973.207	0.0279934
973.341	0.0278712
973.475	0.0280545
973.609	0.0276878
973.743	0.0274433
973.877	0.0281768
974.011	0.0282379
974.145	0.0271377
974.279	0.0274433
974.413	0.0277489
974.547	0.0270155
974.681	0.0270155
974.815	0.028299
974.949	0.0275656
975.083	0.0276878
975.217	0.0281156
975.351	0.028299
975.485	0.0283601
975.619	0.0273211
975.753	0.0276878
975.887	0.0279934
976.021	0.0274433
976.155	0.0270766
976.289	0.0280545
976.423	0.0279323
976.557	0.0276878
976.691	0.0269543
976.825	0.0279323
976.959	0.0275044
977.093	0.02781
977.227	0.0284212
977.361	0.0273822
977.495	0.0278712
977.629	0.0274433
977.763	0.0269543
977.897	0.0280545
978.031	0.0270766
978.165	0.0281768
978.299	0.0274433
978.433	0.02781
978.567	0.0271377
978.701	0.0279934
978.835	0.0271377
978.969	0.0275656
979.103	0.0278712
979.237	0.0271377
979.371	0.0273211
979.505	0.0279323
979.639	0.0277489
979.773	0.02781
979.907	0.0275044
980.041	0.0278712
980.175	0.0279934
980.308	0.0275656
980.442	0.0278712
980.576	0.0281768
980.71	0.0278712
980.844	0.0286046
980.978	0.0269543
981.112	0.0279934
981.246	0.0276267
981.38	0.0281156
981.514	0.0271988
981.648	0.0281156
981.782	0.0276878
981.916	0.0285435
982.05	0.0272599
982.184	0.0281768
982.318	0.02781
982.452	0.0285435
982.586	0.0273211
982.72	0.0276878
982.854	0.0276878
982.988	0.0269543
983.122	0.0281156
983.256	0.0276267
983.39	0.0274433
983.524	0.0287269
983.658	0.0276878
983.792	0.0275044
983.926	0.0277489
984.06	0.0280545
984.194	0.02781
984.328	0.0276267
984.462	0.0281768
984.596	0.0276267
984.73	0.0270766
984.864	0.0271988
984.998	0.0270766
985.132	0.0272599
985.265	0.0279934
985.399	0.0272599
985.533	0.0282379
985.667	0.0276267
985.801	0.0274433
985.935	0.0282379
986.069	0.0281156
986.203	0.0275656
986.337	0.0286046
986.471	0.0271988
986.605	0.0275656
986.739	0.0268932
986.873	0.0283601
987.007	0.0277489
987.141	0.0272599
987.275	0.0273822
987.409	0.0278712
987.543	0.0280545
987.677	0.0270766
987.811	0.0273211
987.945	0.0272599
988.079	0.0279323
988.213	0.0267099
988.347	0.0286657
988.481	0.0275656
988.614	0.028299
988.748	0.0270155
988.882	0.0279323
989.016	0.0278712
989.15	0.0273211
989.284	0.0284212
989.418	0.0279323
989.552	0.0280545
989.686	0.0271988
989.82	0.0276878
989.954	0.0283601
990.088	0.0276878
990.222	0.0277489
990.356	0.0277489
990.49	0.0276878
990.624	0.0276878
990.758	0.0276878
990.892	0.0286046
991.026	0.0279323
991.16	0.0271988
991.294	0.0271988
991.427	0.02781
991.561	0.0281156
991.695	0.0275044
991.829	0.02781
991.963	0.0281768
992.097	0.0283601
992.231	0.0276878
992.365	0.0281156
992.499	0.0282379
992.633	0.0267099
992.767	0.0275044
992.901	0.0273822
993.035	0.0275656
993.169	0.0282379
993.303	0.0281156
993.437	0.0279934
993.571	0.0281768
993.704	0.0279934
993.838	0.0276878
993.972	0.0283601
994.106	0.0276878
994.24	0.0275044
994.374	0.0276878
994.508	0.0283601
994.642	0.0273822
994.776	0.0276878
994.91	0.0276267
995.044	0.0279934
995.178	0.0276267
995.312	0.0275656
995.446	0.0271988
995.58	0.0277489
995.714	0.0275656
995.847	0.0288491
995.981	0.0274433
996.115	0.0271377
996.249	0.0273211
996.383	0.0275656
996.517	0.0288491
996.651	0.0276878
996.785	0.0281768
996.919	0.0273211
997.053	0.0273822
997.187	0.026771
997.321	0.0273211
997.455	0.0284824
997.589	0.0273211
997.722	0.0271377
997.856	0.0275044
997.99	0.0281156
998.124	0.0279323
998.258	0.0281768
998.392	0.0284212
998.526	0.0277489
998.66	0.0279934
998.794	0.0277489
998.928	0.0273822
999.062	0.0279323
999.196	0.0275044
999.33	0.0284824
999.464	0.0279323
999.597	0.0273822
999.731	0.0273822
999.865	0.0281768
999.999	0.0276878
1000.13	0.0285435
1000.27	0.0292769
1000.4	0.0281768
1000.53	0.0279323
1000.67	0.0272599
1000.8	0.0276267
1000.94	0.0273211
1001.07	0.0276878
1001.2	0.0272599
1001.34	0.0270155
1001.47	0.0290325
1001.61	0.0275656
1001.74	0.0279934
1001.87	0.0278712
1002.01	0.0280545
1002.14	0.0280545
1002.28	0.0280545
1002.41	0.0273822
1002.54	0.0274433
1002.68	0.0275656
1002.81	0.0270155
1002.95	0.0276878
1003.08	0.0269543
1003.21	0.0270766
1003.35	0.0281156
1003.48	0.0279934
1003.61	0.0276267
1003.75	0.02781
1003.88	0.0276267
1004.02	0.0279323
1004.15	0.028299
1004.28	0.0279323
1004.42	0.0284824
1004.55	0.0276267
1004.69	0.0279323
1004.82	0.0272599
1004.95	0.0268932
1005.09	0.0273211
1005.22	0.0275656
1005.36	0.0273211
1005.49	0.0278712
1005.62	0.0270155
1005.76	0.0276267
1005.89	0.0279934
1006.03	0.0286657
1006.16	0.0273211
1006.29	0.0275044
1006.43	0.0276267
1006.56	0.0279934
1006.69	0.0273822
1006.83	0.0279934
1006.96	0.0276267
1007.1	0.0279323
1007.23	0.0275044
1007.36	0.0278712
1007.5	0.0274433
1007.63	0.0282379
1007.77	0.0284824
1007.9	0.0276267
1008.03	0.0275656
1008.17	0.0275656
1008.3	0.0272599
1008.44	0.0271988
1008.57	0.0273822
1008.7	0.02781
1008.84	0.0275656
1008.97	0.0280545
1009.1	0.0274433
1009.24	0.02781
1009.37	0.0274433
1009.51	0.0278712
1009.64	0.0282379
1009.77	0.0274433
1009.91	0.0283601
1010.04	0.0266487
1010.18	0.0273822
1010.31	0.0274433
1010.44	0.0279323
1010.58	0.0270766
1010.71	0.0284824
1010.85	0.0279323
1010.98	0.0280545
1011.11	0.0273211
1011.25	0.0279323
1011.38	0.0281768
1011.51	0.0281768
1011.65	0.0275656
1011.78	0.0270155
1011.92	0.0276878
1012.05	0.0276878
1012.18	0.0266487
1012.32	0.0271377
1012.45	0.0279323
1012.59	0.0282379
1012.72	0.0272599
1012.85	0.026771
1012.99	0.0272599
1013.12	0.0277489
1013.26	0.0277489
1013.39	0.0276878
1013.52	0.0273822
1013.66	0.0276267
1013.79	0.02781
1013.92	0.0269543
1014.06	0.0284824
1014.19	0.0270155
1014.33	0.0281768
1014.46	0.0275044
1014.59	0.0275044
1014.73	0.0268932
1014.86	0.0274433
1015	0.028299
1015.13	0.0277489
1015.26	0.0278712
1015.4	0.0276878
1015.53	0.0276267
1015.67	0.0276267
1015.8	0.0271988
1015.93	0.0270766
1016.07	0.02781
1016.2	0.0284212
1016.33	0.0267099
1016.47	0.0269543
1016.6	0.0281768
1016.74	0.0273822
1016.87	0.0277489
1017	0.0274433
1017.14	0.0277489
1017.27	0.0277489
1017.41	0.0276267
1017.54	0.0279323
1017.67	0.0277489
1017.81	0.0277489
1017.94	0.026771
1018.07	0.0283601
1018.21	0.0266487
1018.34	0.02781
1018.48	0.0275044
1018.61	0.0278712
1018.74	0.0276267
1018.88	0.0275044
1019.01	0.0282379
1019.15	0.0270766
1019.28	0.02781
1019.41	0.0278712
1019.55	0.02781
1019.68	0.0275044
1019.82	0.0281156
1019.95	0.02781
1020.08	0.0273822
1020.22	0.0279934
1020.35	0.0273822
1020.48	0.0281768
1020.62	0.0276267
1020.75	0.0275044
1020.89	0.0278712
1021.02	0.0270766
1021.15	0.0279323
1021.29	0.0270766
1021.42	0.0276267
1021.56	0.0271377
1021.69	0.0279323
1021.82	0.0282379
1021.96	0.028299
1022.09	0.0280545
1022.22	0.0276878
1022.36	0.0278712
1022.49	0.0276267
1022.63	0.02781
1022.76	0.0279934
1022.89	0.0277489
1023.03	0.0269543
1023.16	0.0283601
1023.3	0.0278712
1023.43	0.0276878
1023.56	0.0277489
1023.7	0.0278712
1023.83	0.0280545
1023.96	0.0283601
1024.1	0.028299
1024.23	0.0280545
1024.37	0.0271377
1024.5	0.0281768
1024.63	0.0277489
1024.77	0.0279323
1024.9	0.0273211
1025.04	0.0268932
1025.17	0.0279934
1025.3	0.0272599
1025.44	0.0273822
1025.57	0.0276878
1025.7	0.0276878
1025.84	0.02781
1025.97	0.02781
1026.11	0.0278712
1026.24	0.0281768
1026.37	0.0276878
1026.51	0.0277489
1026.64	0.0273822
1026.78	0.0275656
1026.91	0.028299
1027.04	0.0276878
1027.18	0.0274433
1027.31	0.0280545
1027.44	0.0276878
1027.58	0.0279934
1027.71	0.0283601
1027.85	0.0281768
1027.98	0.0286657
1028.11	0.0275044
1028.25	0.0273822
1028.38	0.0278712
1028.52	0.0278712
1028.65	0.0278712
1028.78	0.0278712
1028.92	0.0276267
1029.05	0.0276878
1029.18	0.0278712
1029.32	0.028299
1029.45	0.0281156
1029.59	0.0281156
1029.72	0.0280545
1029.85	0.0277489
1029.99	0.028299
1030.12	0.0285435
1030.26	0.0281156
1030.39	0.02781
1030.52	0.0269543
1030.66	0.0266487
1030.79	0.0276878
1030.92	0.0270155
1031.06	0.0277489
1031.19	0.0287269
1031.33	0.0273822
1031.46	0.0270766
1031.59	0.0276267
1031.73	0.0282379
1031.86	0.0268321
1031.99	0.0277489
1032.13	0.0270766
1032.26	0.0273822
1032.4	0.0273822
1032.53	0.0278712
1032.66	0.0273211
1032.8	0.0274433
1032.93	0.0275044
1033.07	0.0276878
1033.2	0.0275044
1033.33	0.0273211
1033.47	0.0272599
1033.6	0.0275656
1033.73	0.0281156
1033.87	0.0272599
1034	0.028299
1034.14	0.0271377
1034.27	0.0273822
1034.4	0.0276878
1034.54	0.0281768
1034.67	0.0281156
1034.81	0.0273211
1034.94	0.0273211
1035.07	0.0270766
1035.21	0.0277489
1035.34	0.0273822
1035.47	0.02781
1035.61	0.0280545
1035.74	0.0265265
1035.88	0.0277489
1036.01	0.0267099
1036.14	0.0281768
1036.28	0.0280545
1036.41	0.0273822
1036.54	0.0280545
1036.68	0.0278712
1036.81	0.0275044
1036.95	0.0275656
1037.08	0.0278712
1037.21	0.0273822
1037.35	0.0276267
1037.48	0.0280545
1037.62	0.0279323
1037.75	0.0280545
1037.88	0.0275044
1038.02	0.0271988
1038.15	0.0280545
1038.28	0.0276267
1038.42	0.0277489
1038.55	0.02781
1038.69	0.0275656
1038.82	0.0271377
1038.95	0.02781
1039.09	0.0279934
1039.22	0.0273822
1039.35	0.0276878
1039.49	0.0278712
1039.62	0.0275656
1039.76	0.0268932
1039.89	0.02781
1040.02	0.0275656
1040.16	0.0278712
1040.29	0.0279323
1040.43	0.026282
1040.56	0.0273211
1040.69	0.0284212
1040.83	0.0278712
1040.96	0.0278712
1041.09	0.0275044
1041.23	0.0273822
1041.36	0.0273211
1041.5	0.0276267
1041.63	0.0268932
1041.76	0.0280545
1041.9	0.0279934
1042.03	0.0274433
1042.16	0.0278712
1042.3	0.0279934
1042.43	0.02781
1042.57	0.0271988
1042.7	0.028788
1042.83	0.0276267
1042.97	0.0265876
1043.1	0.0273822
1043.23	0.0270766
1043.37	0.0271377
1043.5	0.0268932
1043.64	0.028299
1043.77	0.02781
1043.9	0.0275044
1044.04	0.0275656
1044.17	0.0276878
1044.31	0.0276878
1044.44	0.0277489
1044.57	0.0275044
1044.71	0.0275656
1044.84	0.0278712
1044.97	0.0270766
1045.11	0.0275656
1045.24	0.0273822
1045.38	0.0286046
1045.51	0.02781
1045.64	0.0273211
1045.78	0.0279934
1045.91	0.0276878
1046.04	0.026771
1046.18	0.0279323
1046.31	0.0273822
1046.45	0.0270155
1046.58	0.0275044
1046.71	0.0279323
1046.85	0.026771
1046.98	0.0279323
1047.11	0.0279934
1047.25	0.0275044
1047.38	0.0275656
1047.52	0.0269543
1047.65	0.0284212
1047.78	0.0272599
1047.92	0.0273211
1048.05	0.0275044
1048.18	0.0279323
1048.32	0.0275656
1048.45	0.0272599
1048.59	0.0287269
1048.72	0.0281768
1048.85	0.0276878
1048.99	0.0285435
1049.12	0.0280545
1049.25	0.0272599
1049.39	0.0269543
1049.52	0.0280545
1049.66	0.02781
1049.79	0.0279323
1049.92	0.0274433
1050.06	0.0277489
1050.19	0.0284212
1050.33	0.0272599
1050.46	0.0274433
1050.59	0.0275044
1050.73	0.0282379
1050.86	0.0277489
1050.99	0.0281156
1051.13	0.0278712
1051.26	0.0278712
1051.4	0.0281768
1051.53	0.0275044
1051.66	0.0278712
1051.8	0.028299
1051.93	0.0271988
1052.06	0.0270766
1052.2	0.0284824
1052.33	0.0270155
1052.47	0.0271988
1052.6	0.0272599
1052.73	0.0275656
1052.87	0.0274433
1053	0.0275656
1053.13	0.0274433
1053.27	0.0269543
1053.4	0.0273211
1053.54	0.0280545
1053.67	0.0279323
1053.8	0.02781
1053.94	0.0275044
1054.07	0.0268932
1054.2	0.0274433
1054.34	0.0280545
1054.47	0.0282379
1054.61	0.028299
1054.74	0.028299
1054.87	0.0271377
1055.01	0.0275656
1055.14	0.0282379
1055.27	0.0283601
1055.41	0.0280545
1055.54	0.02781
1055.68	0.0286046
1055.81	0.0272599
1055.94	0.0280545
1056.08	0.02781
1056.21	0.0268321
1056.34	0.0279323
1056.48	0.0270766
1056.61	0.0281156
1056.75	0.0271988
1056.88	0.0286657
1057.01	0.0276267
1057.15	0.0277489
1057.28	0.0278712
1057.41	0.0283601
1057.55	0.0281156
1057.68	0.0280545
1057.82	0.0273822
1057.95	0.0286657
1058.08	0.0286657
1058.22	0.0280545
1058.35	0.0277489
1058.48	0.0271377
1058.62	0.0279934
1058.75	0.0276878
1058.89	0.0287269
1059.02	0.0279323
1059.15	0.0273822
1059.29	0.0279934
1059.42	0.0278712
1059.55	0.0271377
1059.69	0.0281768
1059.82	0.0279934
1059.96	0.0275656
1060.09	0.0278712
1060.22	0.0284824
1060.36	0.02781
1060.49	0.0276878
1060.62	0.0279934
1060.76	0.0277489
1060.89	0.0275656
1061.03	0.0286046
1061.16	0.0278712
1061.29	0.0275044
1061.43	0.0285435
1061.56	0.0278712
1061.69	0.0276267
1061.83	0.0276267
1061.96	0.0275656
1062.1	0.0274433
1062.23	0.0272599
1062.36	0.0286046
1062.5	0.0270766
1062.63	0.028299
1062.76	0.0279323
1062.9	0.0275656
1063.03	0.0279934
1063.17	0.0272599
1063.3	0.0275044
1063.43	0.0271988
1063.57	0.0273822
1063.7	0.0280545
1063.83	0.0275044
1063.97	0.0277489
1064.1	0.0279323
1064.23	0.0274433
1064.37	0.02781
1064.5	0.0268321
1064.64	0.0270766
1064.77	0.0275044
1064.9	0.0274433
1065.04	0.0278712
1065.17	0.0281768
1065.3	0.0273822
1065.44	0.0268932
1065.57	0.0274433
1065.71	0.0279323
1065.84	0.0281156
1065.97	0.02781
1066.11	0.0271377
1066.24	0.0283601
1066.37	0.0271988
1066.51	0.02781
1066.64	0.0281156
1066.78	0.0273822
1066.91	0.0276878
1067.04	0.0277489
1067.18	0.0270766
1067.31	0.0273822
1067.44	0.0272599
1067.58	0.0276878
1067.71	0.02781
1067.85	0.0279323
1067.98	0.0268321
1068.11	0.0282379
1068.25	0.0275656
1068.38	0.0275656
1068.51	0.0282379
1068.65	0.0279323
1068.78	0.0281768
1068.92	0.0277489
1069.05	0.0274433
1069.18	0.0285435
1069.32	0.0265876
1069.45	0.028299
1069.58	0.0271377
1069.72	0.0274433
1069.85	0.0271988
1069.98	0.0270766
1070.12	0.0282379
1070.25	0.0273211
1070.39	0.0282379
1070.52	0.0280545
1070.65	0.0275044
1070.79	0.0284824
1070.92	0.0279323
1071.05	0.0275044
1071.19	0.0276878
1071.32	0.0274433
1071.46	0.0276878
1071.59	0.0273211
1071.72	0.0270766
1071.86	0.0264654
1071.99	0.0280545
1072.12	0.0282379
1072.26	0.0276267
1072.39	0.0271377
1072.53	0.0268932
1072.66	0.0277489
1072.79	0.0280545
1072.93	0.0281156
1073.06	0.02781
1073.19	0.0273822
1073.33	0.026771
1073.46	0.0272599
1073.59	0.0278712
1073.73	0.0274433
1073.86	0.0277489
1074	0.028299
1074.13	0.028299
1074.26	0.02781
1074.4	0.02781
1074.53	0.0277489
1074.66	0.0277489
1074.8	0.0271377
1074.93	0.0278712
1075.07	0.0270155
1075.2	0.0270155
1075.33	0.0281156
1075.47	0.0275656
1075.6	0.0286046
1075.73	0.0277489
1075.87	0.0265265
1076	0.0279323
1076.14	0.0275656
1076.27	0.0268321
1076.4	0.0274433
1076.54	0.02781
1076.67	0.0282379
1076.8	0.0279934
1076.94	0.0275656
1077.07	0.0277489
1077.2	0.0276267
1077.34	0.0278712
1077.47	0.0272599
1077.61	0.0273211
1077.74	0.0273211
1077.87	0.02781
1078.01	0.0270766
1078.14	0.0279323
1078.27	0.0274433
1078.41	0.0273211
1078.54	0.0279934
1078.68	0.026282
1078.81	0.0288491
1078.94	0.0276878
1079.08	0.02781
1079.21	0.028299
1079.34	0.0275656
1079.48	0.0276267
1079.61	0.0276878
1079.74	0.0278712
1079.88	0.0270155
1080.01	0.0270766
1080.15	0.0275656
1080.28	0.0281156
1080.41	0.0274433
1080.55	0.0268932
1080.68	0.0278712
1080.81	0.0272599
1080.95	0.0274433
1081.08	0.0278712
1081.22	0.0270766
1081.35	0.0276878
1081.48	0.0282379
1081.62	0.0272599
1081.75	0.0281156
1081.88	0.0275044
1082.02	0.0272599
1082.15	0.0270155
1082.28	0.0284212
1082.42	0.0280545
1082.55	0.0281156
1082.69	0.0275656
1082.82	0.0276878
1082.95	0.0273211
1083.09	0.0284824
1083.22	0.0284212
1083.35	0.02781
1083.49	0.0276878
1083.62	0.0284824
1083.75	0.0284212
1083.89	0.0273211
1084.02	0.0276878
1084.16	0.0276267
1084.29	0.0271988
1084.42	0.0279323
1084.56	0.0281768
1084.69	0.0275656
1084.82	0.0274433
1084.96	0.0279323
1085.09	0.0275656
1085.23	0.0279323
1085.36	0.0275656
1085.49	0.0271988
1085.63	0.0278712
1085.76	0.0273822
1085.89	0.0277489
1086.03	0.0278712
1086.16	0.0275656
1086.29	0.0276267
1086.43	0.0271988
1086.56	0.0277489
1086.7	0.028299
1086.83	0.0283601
1086.96	0.0281768
1087.1	0.0281768
1087.23	0.0279323
1087.36	0.0279934
1087.5	0.0273822
1087.63	0.0281156
1087.76	0.028299
1087.9	0.0275656
1088.03	0.02781
1088.17	0.0270155
1088.3	0.0279934
1088.43	0.0284824
1088.57	0.0281768
1088.7	0.0268932
1088.83	0.0279323
1088.97	0.0284824
1089.1	0.0283601
1089.24	0.0276878
1089.37	0.02781
1089.5	0.0279323
1089.64	0.0272599
1089.77	0.02781
1089.9	0.0280545
1090.04	0.0283601
1090.17	0.0276267
1090.3	0.0275044
1090.44	0.02781
1090.57	0.0278712
1090.71	0.0278712
1090.84	0.0281768
1090.97	0.0271988
1091.11	0.0277489
1091.24	0.0284212
1091.37	0.028299
1091.51	0.0273822
1091.64	0.0281768
1091.77	0.0278712
1091.91	0.0277489
1092.04	0.0276267
1092.18	0.0281156
1092.31	0.0275044
1092.44	0.0275044
1092.58	0.0272599
1092.71	0.0274433
1092.84	0.0279934
1092.98	0.0273822
1093.11	0.0280545
1093.24	0.0279323
1093.38	0.0273822
1093.51	0.0273211
1093.65	0.0276878
1093.78	0.0280545
1093.91	0.0279323
1094.05	0.0276267
1094.18	0.0276267
1094.31	0.0276878
1094.45	0.0276878
1094.58	0.0280545
1094.71	0.0279934
1094.85	0.0275044
1094.98	0.0276878
1095.12	0.0278712
1095.25	0.0274433
1095.38	0.0274433
1095.52	0.0277489
1095.65	0.0281768
1095.78	0.0274433
1095.92	0.0281768
1096.05	0.0279934
1096.18	0.0280545
1096.32	0.0283601
1096.45	0.0276267
1096.59	0.0281156
1096.72	0.0276267
1096.85	0.0279934
1096.99	0.0279934
1097.12	0.0272599
1097.25	0.0278712
1097.39	0.0272599
1097.52	0.0276878
1097.65	0.0279323
1097.79	0.0271377
1097.92	0.0270155
1098.06	0.0273822
1098.19	0.0280545
1098.32	0.0275044
1098.46	0.0278712
1098.59	0.0276267
1098.72	0.0283601
1098.86	0.028299
1098.99	0.0281156
1099.12	0.0276267
1099.26	0.0279323
1099.39	0.0279934
1099.53	0.026771
1099.66	0.0277489
1099.79	0.0281768
1099.93	0.0277489
1100.06	0.0272599
1100.19	0.028299
1100.33	0.0278712
1100.46	0.0279934
1100.59	0.0278712
1100.73	0.0278712
1100.86	0.0274433
1100.99	0.0275656
1101.13	0.0276267
1101.26	0.0276878
1101.4	0.0271988
1101.53	0.0275656
1101.66	0.0276878
1101.8	0.0276267
1101.93	0.0273822
1102.06	0.0273211
1102.2	0.0275656
1102.33	0.0279323
1102.46	0.0280545
1102.6	0.02781
1102.73	0.0275656
1102.87	0.0284212
1103	0.0270766
1103.13	0.0279934
1103.27	0.0271988
1103.4	0.0279323
1103.53	0.0270155
1103.67	0.0286657
1103.8	0.0271988
1103.93	0.0273211
1104.07	0.0278712
1104.2	0.0281156
1104.34	0.0273211
1104.47	0.0278712
1104.6	0.0270766
1104.74	0.0277489
1104.87	0.028299
1105	0.0274433
1105.14	0.0279323
1105.27	0.0271988
1105.4	0.0277489
1105.54	0.0270766
1105.67	0.0286657
1105.8	0.0276267
1105.94	0.0271377
1106.07	0.0277489
1106.21	0.0269543
1106.34	0.0275656
1106.47	0.0281156
1106.61	0.0271988
1106.74	0.0268321
1106.87	0.0276267
1107.01	0.02781
1107.14	0.0273211
1107.27	0.0276267
1107.41	0.0277489
1107.54	0.0274433

