Source: Spectrum Viewer

Chart: Pulse Spectrum

Series: 
Wavelength (nm)	S (a.u.)
617.638	0.0264909
617.773	0.0272233
617.908	0.0273454
618.043	0.0270402
618.178	0.0280168
618.313	0.0272233
618.448	0.0275285
618.583	0.0280779
618.718	0.028261
618.853	0.028322
618.988	0.0280779
619.123	0.0275285
619.258	0.0282
619.394	0.0275285
619.529	0.0277727
619.664	0.0274065
619.799	0.0280779
619.934	0.0270402
620.069	0.0271013
620.204	0.0277117
620.339	0.0277117
620.474	0.0269792
620.609	0.0273454
620.744	0.0275285
620.879	0.0281389
621.014	0.0275896
621.149	0.0282
621.284	0.0272233
621.419	0.0268571
621.554	0.0277117
621.689	0.0285662
621.825	0.0285052
621.96	0.0279558
622.095	0.0281389
622.23	0.0277727
622.365	0.0275896
622.5	0.0280168
622.635	0.0275285
622.77	0.0283831
622.905	0.0274065
623.04	0.0278337
623.175	0.0280779
623.31	0.0270402
623.445	0.0278948
623.58	0.0271013
623.715	0.0277117
623.85	0.0267961
623.985	0.0270402
624.12	0.0275896
624.255	0.0275285
624.39	0.0273454
624.525	0.028261
624.661	0.0278948
624.796	0.0280168
624.931	0.0280168
625.066	0.028261
625.201	0.0278337
625.336	0.0276506
625.471	0.0274675
625.606	0.0280779
625.741	0.0272844
625.876	0.0267961
626.011	0.0269181
626.146	0.0271013
626.281	0.0274675
626.416	0.0278337
626.551	0.0282
626.686	0.0271623
626.821	0.0277117
626.956	0.0278948
627.091	0.0275896
627.226	0.028322
627.361	0.0279558
627.496	0.0274065
627.631	0.0280168
627.766	0.0282
627.901	0.0275285
628.036	0.028261
628.171	0.028261
628.307	0.0280779
628.442	0.0288104
628.577	0.0280168
628.712	0.0275285
628.847	0.0278337
628.982	0.0282
629.117	0.0272844
629.252	0.0285052
629.387	0.0274675
629.522	0.0270402
629.657	0.0285052
629.792	0.0264298
629.927	0.0275285
630.062	0.0277117
630.197	0.028261
630.332	0.0272844
630.467	0.0282
630.602	0.0278337
630.737	0.0272844
630.872	0.028261
631.007	0.0282
631.142	0.0277727
631.277	0.0274675
631.412	0.0264298
631.547	0.0276506
631.682	0.0280168
631.817	0.0276506
631.952	0.0277117
632.087	0.0273454
632.222	0.0274675
632.357	0.0273454
632.492	0.0280168
632.627	0.0275285
632.762	0.0274065
632.897	0.0272233
633.032	0.028261
633.167	0.0269792
633.302	0.0280779
633.437	0.0275285
633.572	0.0274675
633.707	0.0277117
633.842	0.0270402
633.978	0.0278948
634.113	0.0275285
634.248	0.0268571
634.383	0.0276506
634.518	0.028261
634.653	0.0276506
634.788	0.0274675
634.923	0.0279558
635.058	0.0267961
635.193	0.0277727
635.328	0.0274675
635.463	0.0278948
635.598	0.028322
635.733	0.0276506
635.868	0.0275285
636.003	0.0272844
636.138	0.0277727
636.273	0.0280168
636.408	0.0283831
636.543	0.0271013
636.678	0.0278337
636.813	0.0271013
636.948	0.0286883
637.083	0.0275896
637.218	0.028322
637.353	0.0280779
637.488	0.0276506
637.623	0.0287493
637.758	0.0274065
637.893	0.0278337
638.028	0.0269792
638.163	0.0280168
638.298	0.0273454
638.433	0.0282
638.568	0.0276506
638.703	0.0272844
638.838	0.0276506
638.973	0.0278948
639.108	0.0276506
639.243	0.0282
639.378	0.0280168
639.513	0.0276506
639.648	0.0275896
639.783	0.0276506
639.918	0.0274065
640.053	0.0270402
640.188	0.0274675
640.323	0.0285052
640.458	0.0277727
640.593	0.0285052
640.728	0.0282
640.863	0.0280779
640.998	0.0274675
641.133	0.0273454
641.268	0.0276506
641.403	0.0278948
641.538	0.0279558
641.673	0.0274675
641.808	0.0277727
641.943	0.0275896
642.078	0.0274675
642.213	0.0285662
642.348	0.0277117
642.483	0.0276506
642.618	0.0274065
642.753	0.0268571
642.888	0.028261
643.023	0.0276506
643.158	0.0270402
643.293	0.0278948
643.428	0.0272844
643.563	0.0273454
643.698	0.0280168
643.833	0.0273454
643.968	0.0268571
644.103	0.0277727
644.237	0.0273454
644.372	0.0273454
644.507	0.0276506
644.642	0.0285662
644.777	0.0277117
644.912	0.028322
645.047	0.0274675
645.182	0.0278948
645.317	0.0279558
645.452	0.0275896
645.587	0.0273454
645.722	0.0282
645.857	0.0280168
645.992	0.0272844
646.127	0.0274675
646.262	0.0279558
646.397	0.0274065
646.532	0.0282
646.667	0.0277117
646.802	0.0281389
646.937	0.0284441
647.072	0.0269181
647.207	0.0279558
647.342	0.0275896
647.477	0.0278337
647.612	0.0274065
647.747	0.0274675
647.882	0.0279558
648.017	0.0271623
648.152	0.0274675
648.287	0.0268571
648.422	0.0275285
648.557	0.0281389
648.692	0.0283831
648.827	0.0282
648.962	0.028322
649.097	0.0272233
649.232	0.0274675
649.367	0.0275285
649.502	0.0271623
649.637	0.0276506
649.772	0.0275285
649.906	0.0275285
650.041	0.0278337
650.176	0.0274065
650.311	0.0274065
650.446	0.0269181
650.581	0.0278337
650.716	0.0277727
650.851	0.028261
650.986	0.0277117
651.121	0.0270402
651.256	0.0285052
651.391	0.0272233
651.526	0.0274675
651.661	0.0274065
651.796	0.0275285
651.931	0.0277117
652.066	0.0278337
652.201	0.0278337
652.336	0.0277117
652.471	0.0272844
652.606	0.0275896
652.741	0.0273454
652.876	0.0268571
653.011	0.0279558
653.146	0.0278948
653.281	0.0271013
653.415	0.0278337
653.55	0.0287493
653.685	0.0273454
653.82	0.028322
653.955	0.0280779
654.09	0.0277727
654.225	0.028261
654.36	0.0270402
654.495	0.0278337
654.63	0.0278337
654.765	0.0272233
654.9	0.0275896
655.035	0.0271013
655.17	0.0282
655.305	0.0277727
655.44	0.0276506
655.575	0.0270402
655.71	0.0271623
655.845	0.0277117
655.98	0.0273454
656.115	0.0277727
656.25	0.0277727
656.384	0.0268571
656.519	0.0279558
656.654	0.0282
656.789	0.0273454
656.924	0.0280779
657.059	0.0275896
657.194	0.028261
657.329	0.0278948
657.464	0.0280779
657.599	0.0278337
657.734	0.0275285
657.869	0.0280779
658.004	0.0272233
658.139	0.0270402
658.274	0.0277727
658.409	0.0278948
658.544	0.0280168
658.679	0.0281389
658.813	0.0272844
658.948	0.0275896
659.083	0.0283831
659.218	0.0275285
659.353	0.0288104
659.488	0.0279558
659.623	0.0280779
659.758	0.028322
659.893	0.0274675
660.028	0.0269181
660.163	0.0271623
660.298	0.0274675
660.433	0.0278337
660.568	0.0271013
660.703	0.0274675
660.838	0.0278337
660.972	0.0278948
661.107	0.0289324
661.242	0.0274675
661.377	0.0277727
661.512	0.0277117
661.647	0.0278337
661.782	0.0274675
661.917	0.0286272
662.052	0.0275896
662.187	0.0276506
662.322	0.0280779
662.457	0.0273454
662.592	0.0275285
662.727	0.0275896
662.862	0.0283831
662.996	0.0284441
663.131	0.0271013
663.266	0.0275896
663.401	0.0282
663.536	0.0279558
663.671	0.0268571
663.806	0.0274675
663.941	0.0265519
664.076	0.0272233
664.211	0.0271623
664.346	0.028322
664.481	0.0277117
664.616	0.0282
664.75	0.0275285
664.885	0.0278337
665.02	0.0277727
665.155	0.0277117
665.29	0.0276506
665.425	0.028322
665.56	0.0278337
665.695	0.0273454
665.83	0.0276506
665.965	0.0264298
666.1	0.0286272
666.235	0.0275285
666.37	0.0284441
666.504	0.0283831
666.639	0.0274065
666.774	0.0277727
666.909	0.0273454
667.044	0.0278337
667.179	0.0269181
667.314	0.0278337
667.449	0.0269181
667.584	0.0277727
667.719	0.0272844
667.854	0.026735
667.989	0.0268571
668.123	0.0273454
668.258	0.0275285
668.393	0.0274065
668.528	0.0273454
668.663	0.028322
668.798	0.0271013
668.933	0.0280779
669.068	0.0277727
669.203	0.0278948
669.338	0.0281389
669.473	0.0279558
669.607	0.0278948
669.742	0.0284441
669.877	0.0280168
670.012	0.0276506
670.147	0.0278337
670.282	0.0278337
670.417	0.0270402
670.552	0.026735
670.687	0.0278948
670.822	0.0273454
670.957	0.028261
671.091	0.0273454
671.226	0.0279558
671.361	0.0275896
671.496	0.0277727
671.631	0.0275285
671.766	0.0275896
671.901	0.0276506
672.036	0.0265519
672.171	0.0280779
672.306	0.0276506
672.44	0.0275896
672.575	0.0279558
672.71	0.0276506
672.845	0.0275896
672.98	0.0277727
673.115	0.0278948
673.25	0.0281389
673.385	0.0276506
673.52	0.0277117
673.655	0.0282
673.789	0.0271623
673.924	0.0278948
674.059	0.0277117
674.194	0.0267961
674.329	0.0284441
674.464	0.0274065
674.599	0.0278948
674.734	0.0277117
674.869	0.0268571
675.003	0.0274675
675.138	0.0276506
675.273	0.0278337
675.408	0.0277727
675.543	0.0277727
675.678	0.0270402
675.813	0.0277117
675.948	0.0272844
676.083	0.0278948
676.217	0.0278948
676.352	0.0275896
676.487	0.0272844
676.622	0.0274065
676.757	0.0278337
676.892	0.0275896
677.027	0.0284441
677.162	0.0277727
677.297	0.0279558
677.431	0.0279558
677.566	0.0275285
677.701	0.0281389
677.836	0.026735
677.971	0.0264298
678.106	0.0280168
678.241	0.0279558
678.376	0.0272233
678.511	0.0268571
678.645	0.0275896
678.78	0.0272844
678.915	0.0274675
679.05	0.028261
679.185	0.0284441
679.32	0.0278948
679.455	0.028261
679.59	0.028261
679.724	0.0277727
679.859	0.0278337
679.994	0.0284441
680.129	0.0283831
680.264	0.0273454
680.399	0.0273454
680.534	0.0275896
680.669	0.0277117
680.803	0.0275285
680.938	0.0277727
681.073	0.0285052
681.208	0.0274675
681.343	0.0285662
681.478	0.028322
681.613	0.0278948
681.748	0.0269792
681.882	0.0277727
682.017	0.0267961
682.152	0.0283831
682.287	0.0274065
682.422	0.0274675
682.557	0.0279558
682.692	0.0280168
682.827	0.0271623
682.961	0.0275285
683.096	0.0284441
683.231	0.0280168
683.366	0.0275285
683.501	0.0276506
683.636	0.0270402
683.771	0.0274675
683.906	0.0272233
684.04	0.0284441
684.175	0.0279558
684.31	0.0278948
684.445	0.0275896
684.58	0.028322
684.715	0.0278948
684.85	0.0278337
684.984	0.0274065
685.119	0.0285662
685.254	0.0268571
685.389	0.0269792
685.524	0.0278337
685.659	0.0273454
685.794	0.0277727
685.928	0.0275285
686.063	0.0267961
686.198	0.0278948
686.333	0.0282
686.468	0.0271013
686.603	0.0275896
686.738	0.0277117
686.872	0.0288104
687.007	0.0273454
687.142	0.0278948
687.277	0.0271623
687.412	0.0272233
687.547	0.0281389
687.682	0.0273454
687.816	0.0271013
687.951	0.0285052
688.086	0.0274065
688.221	0.0278337
688.356	0.0275896
688.491	0.0277727
688.626	0.0277117
688.76	0.0279558
688.895	0.0280168
689.03	0.0274675
689.165	0.0265519
689.3	0.0271623
689.435	0.0272233
689.57	0.0278948
689.704	0.0277117
689.839	0.0274675
689.974	0.0278337
690.109	0.0275896
690.244	0.0271623
690.379	0.0277727
690.513	0.0275285
690.648	0.0269181
690.783	0.0272844
690.918	0.0280168
691.053	0.0278337
691.188	0.0284441
691.323	0.028322
691.457	0.0281389
691.592	0.0268571
691.727	0.0277727
691.862	0.0279558
691.997	0.0280168
692.132	0.0270402
692.266	0.0280168
692.401	0.0274675
692.536	0.0276506
692.671	0.0279558
692.806	0.0272844
692.941	0.0275285
693.075	0.026674
693.21	0.0275896
693.345	0.0270402
693.48	0.0272233
693.615	0.0278337
693.75	0.0274675
693.885	0.0277117
694.019	0.0275285
694.154	0.0277117
694.289	0.0268571
694.424	0.0276506
694.559	0.028322
694.694	0.0274675
694.828	0.0277727
694.963	0.0279558
695.098	0.0279558
695.233	0.0283831
695.368	0.0269792
695.503	0.0280168
695.637	0.0274065
695.772	0.0279558
695.907	0.0275896
696.042	0.0279558
696.177	0.0271623
696.312	0.0271623
696.446	0.0283831
696.581	0.0276506
696.716	0.0280779
696.851	0.0278948
696.986	0.0274065
697.12	0.0272844
697.255	0.028322
697.39	0.0279558
697.525	0.0281389
697.66	0.0275285
697.795	0.0279558
697.929	0.0278337
698.064	0.0284441
698.199	0.0275285
698.334	0.0274675
698.469	0.0275896
698.604	0.0277117
698.738	0.0285052
698.873	0.0273454
699.008	0.0282
699.143	0.0270402
699.278	0.0271013
699.412	0.0277727
699.547	0.0281389
699.682	0.0279558
699.817	0.0274675
699.952	0.028261
700.087	0.0274065
700.221	0.0272233
700.356	0.0282
700.491	0.0273454
700.626	0.0276506
700.761	0.0274065
700.895	0.0274065
701.03	0.0279558
701.165	0.0280779
701.3	0.0277117
701.435	0.0285052
701.57	0.0277727
701.704	0.0273454
701.839	0.0277727
701.974	0.0280168
702.109	0.0274675
702.244	0.0273454
702.378	0.028322
702.513	0.0280779
702.648	0.0272844
702.783	0.0282
702.918	0.028322
703.052	0.0278948
703.187	0.0276506
703.322	0.026735
703.457	0.0277727
703.592	0.0277727
703.727	0.0277117
703.861	0.0274675
703.996	0.0271623
704.131	0.026674
704.266	0.0277117
704.401	0.0276506
704.535	0.0277727
704.67	0.0274675
704.805	0.028261
704.94	0.0282
705.075	0.0277117
705.209	0.0280168
705.344	0.0276506
705.479	0.0271013
705.614	0.0271623
705.749	0.0275285
705.883	0.0272233
706.018	0.0268571
706.153	0.0274065
706.288	0.0280779
706.423	0.0282
706.557	0.0278337
706.692	0.0277727
706.827	0.0278337
706.962	0.0278948
707.097	0.0279558
707.231	0.0283831
707.366	0.0275896
707.501	0.026613
707.636	0.0278948
707.771	0.0280779
707.905	0.0268571
708.04	0.0271013
708.175	0.0280168
708.31	0.0277727
708.445	0.0271623
708.579	0.0278337
708.714	0.0273454
708.849	0.028261
708.984	0.0277117
709.118	0.0275285
709.253	0.0277117
709.388	0.0278948
709.523	0.0270402
709.658	0.0275285
709.792	0.0279558
709.927	0.0278948
710.062	0.0275896
710.197	0.0274675
710.332	0.0271623
710.466	0.0276506
710.601	0.0277117
710.736	0.0279558
710.871	0.0264298
711.006	0.0278948
711.14	0.0279558
711.275	0.0280779
711.41	0.0273454
711.545	0.0280779
711.679	0.0282
711.814	0.0271013
711.949	0.0277727
712.084	0.0278337
712.219	0.0271013
712.353	0.0277117
712.488	0.028261
712.623	0.0276506
712.758	0.0277117
712.892	0.0273454
713.027	0.0277117
713.162	0.0281389
713.297	0.0278337
713.432	0.0280168
713.566	0.0273454
713.701	0.0279558
713.836	0.0274675
713.971	0.028261
714.105	0.0269181
714.24	0.0277727
714.375	0.0275285
714.51	0.0273454
714.645	0.0272844
714.779	0.0263688
714.914	0.0275285
715.049	0.0275285
715.184	0.0273454
715.318	0.0282
715.453	0.0275285
715.588	0.0278948
715.723	0.0276506
715.858	0.0275285
715.992	0.0279558
716.127	0.0285662
716.262	0.0275896
716.397	0.0268571
716.531	0.0275285
716.666	0.0275285
716.801	0.0279558
716.936	0.0278948
717.07	0.0277727
717.205	0.0280779
717.34	0.0286272
717.475	0.028322
717.61	0.0275285
717.744	0.0285052
717.879	0.0274675
718.014	0.0280779
718.149	0.0273454
718.283	0.0280168
718.418	0.0284441
718.553	0.0280168
718.688	0.0274065
718.822	0.0274065
718.957	0.0270402
719.092	0.0279558
719.227	0.0275896
719.361	0.0285052
719.496	0.0271013
719.631	0.028261
719.766	0.0278337
719.9	0.0273454
720.035	0.0275285
720.17	0.0278337
720.305	0.0279558
720.44	0.0278948
720.574	0.0277117
720.709	0.0275285
720.844	0.0272233
720.979	0.028261
721.113	0.0276506
721.248	0.0275285
721.383	0.0278948
721.518	0.0275285
721.652	0.0270402
721.787	0.0275896
721.922	0.0272844
722.057	0.028322
722.191	0.0281389
722.326	0.0271623
722.461	0.028322
722.596	0.0278337
722.73	0.0277727
722.865	0.0274065
723	0.0274065
723.135	0.0282
723.269	0.0277117
723.404	0.0275285
723.539	0.0276506
723.674	0.0273454
723.808	0.0276506
723.943	0.028322
724.078	0.0275285
724.213	0.0278337
724.347	0.0278948
724.482	0.0273454
724.617	0.0271623
724.752	0.0283831
724.886	0.0272844
725.021	0.0274675
725.156	0.0279558
725.291	0.0274065
725.425	0.0278948
725.56	0.0277117
725.695	0.0280779
725.829	0.0278337
725.964	0.0280168
726.099	0.0275896
726.234	0.0277727
726.368	0.0280779
726.503	0.0278948
726.638	0.0274675
726.773	0.0269181
726.907	0.0281389
727.042	0.0274065
727.177	0.0279558
727.312	0.0273454
727.446	0.0278948
727.581	0.0269792
727.716	0.0279558
727.851	0.0270402
727.985	0.0281389
728.12	0.0276506
728.255	0.0276506
728.389	0.0279558
728.524	0.0277117
728.659	0.0274065
728.794	0.0274675
728.928	0.0278337
729.063	0.0275896
729.198	0.0274065
729.333	0.0284441
729.467	0.0280779
729.602	0.0281389
729.737	0.0269792
729.872	0.028261
730.006	0.0283831
730.141	0.028322
730.276	0.026613
730.41	0.0275896
730.545	0.0276506
730.68	0.0287493
730.815	0.0270402
730.949	0.0274065
731.084	0.0280168
731.219	0.0280168
731.354	0.0268571
731.488	0.0270402
731.623	0.028322
731.758	0.0276506
731.892	0.0278948
732.027	0.0271013
732.162	0.0280779
732.297	0.0281389
732.431	0.0276506
732.566	0.0281389
732.701	0.0276506
732.835	0.0276506
732.97	0.0277727
733.105	0.0275285
733.24	0.0280168
733.374	0.0277727
733.509	0.0272844
733.644	0.0278948
733.779	0.0276506
733.913	0.0271013
734.048	0.0277727
734.183	0.0272233
734.317	0.0276506
734.452	0.0280779
734.587	0.0278948
734.722	0.0282
734.856	0.0283831
734.991	0.0272233
735.126	0.0278337
735.26	0.0277727
735.395	0.0274675
735.53	0.0277727
735.665	0.0278337
735.799	0.0275896
735.934	0.0272844
736.069	0.0277117
736.203	0.0277727
736.338	0.0277727
736.473	0.0282
736.607	0.0276506
736.742	0.0274675
736.877	0.028322
737.012	0.0271623
737.146	0.0273454
737.281	0.0282
737.416	0.0275285
737.55	0.0275285
737.685	0.0278948
737.82	0.0271013
737.955	0.0288714
738.089	0.0278337
738.224	0.0284441
738.359	0.0273454
738.493	0.0274675
738.628	0.0276506
738.763	0.0279558
738.897	0.0280168
739.032	0.0276506
739.167	0.0276506
739.302	0.0270402
739.436	0.0271013
739.571	0.0275896
739.706	0.0275285
739.84	0.0272844
739.975	0.0274675
740.11	0.026613
740.244	0.0277117
740.379	0.0275285
740.514	0.0276506
740.649	0.0277727
740.783	0.0271623
740.918	0.0273454
741.053	0.0271013
741.187	0.0281389
741.322	0.0272233
741.457	0.0274675
741.591	0.0278337
741.726	0.0269181
741.861	0.0273454
741.996	0.0272233
742.13	0.0280168
742.265	0.028261
742.4	0.0275896
742.534	0.0269792
742.669	0.0274675
742.804	0.0281389
742.938	0.0277727
743.073	0.0278337
743.208	0.0271013
743.342	0.0280168
743.477	0.0272844
743.612	0.0278337
743.747	0.0275285
743.881	0.0274675
744.016	0.0282
744.151	0.0275896
744.285	0.0274675
744.42	0.0277117
744.555	0.0271013
744.689	0.026735
744.824	0.0273454
744.959	0.0267961
745.093	0.0278337
745.228	0.0276506
745.363	0.0277727
745.497	0.0278337
745.632	0.0278337
745.767	0.0284441
745.901	0.0280168
746.036	0.0278948
746.171	0.028261
746.305	0.0271623
746.44	0.0273454
746.575	0.0280779
746.71	0.0268571
746.844	0.0275285
746.979	0.0281389
747.114	0.0274065
747.248	0.0272233
747.383	0.0272844
747.518	0.0275285
747.652	0.0271623
747.787	0.0280779
747.922	0.0278337
748.056	0.0274065
748.191	0.0274675
748.326	0.0272844
748.46	0.0275285
748.595	0.0275285
748.73	0.028261
748.864	0.0279558
748.999	0.0271623
749.134	0.0271623
749.268	0.0275285
749.403	0.0273454
749.538	0.0272844
749.672	0.0271013
749.807	0.0276506
749.942	0.0280168
750.076	0.0272844
750.211	0.0271623
750.346	0.0262467
750.48	0.0281389
750.615	0.028322
750.75	0.0278337
750.884	0.0279558
751.019	0.0277117
751.154	0.0279558
751.288	0.0284441
751.423	0.0278337
751.558	0.0265519
751.692	0.0270402
751.827	0.0273454
751.962	0.0278948
752.096	0.0280779
752.231	0.0287493
752.366	0.0280779
752.5	0.0272844
752.635	0.0275285
752.77	0.0280779
752.904	0.0276506
753.039	0.028261
753.174	0.0277727
753.308	0.0278337
753.443	0.0284441
753.578	0.0271623
753.712	0.0270402
753.847	0.0272233
753.982	0.0283831
754.116	0.0279558
754.251	0.0277117
754.386	0.0279558
754.52	0.0276506
754.655	0.0272844
754.79	0.0278337
754.924	0.0277117
755.059	0.0274065
755.194	0.0275285
755.328	0.0280779
755.463	0.0279558
755.597	0.0277727
755.732	0.0279558
755.867	0.0281389
756.001	0.0278948
756.136	0.0275285
756.271	0.0277117
756.405	0.028322
756.54	0.0285662
756.675	0.0277727
756.809	0.028322
756.944	0.0278337
757.079	0.028322
757.213	0.0275285
757.348	0.0267961
757.483	0.0269181
757.617	0.0285662
757.752	0.0269181
757.887	0.0286883
758.021	0.0265519
758.156	0.0285052
758.29	0.0278948
758.425	0.0271013
758.56	0.0277117
758.694	0.0280779
758.829	0.0279558
758.964	0.0271623
759.098	0.0278948
759.233	0.0277727
759.368	0.0273454
759.502	0.0277727
759.637	0.0276506
759.772	0.0278948
759.906	0.0267961
760.041	0.0264909
760.175	0.0277727
760.31	0.0281389
760.445	0.0277727
760.579	0.0275285
760.714	0.0274065
760.849	0.0278337
760.983	0.0274675
761.118	0.0276506
761.253	0.0275896
761.387	0.0275896
761.522	0.0272233
761.656	0.0281389
761.791	0.0276506
761.926	0.0277117
762.06	0.0279558
762.195	0.0272233
762.33	0.0279558
762.464	0.0275285
762.599	0.0278948
762.733	0.0278948
762.868	0.0269792
763.003	0.0277117
763.137	0.0276506
763.272	0.0275896
763.407	0.0282
763.541	0.0288714
763.676	0.0270402
763.811	0.0271013
763.945	0.0275896
764.08	0.0282
764.214	0.0281389
764.349	0.0272844
764.484	0.0272233
764.618	0.0286883
764.753	0.0285662
764.888	0.0278337
765.022	0.0278337
765.157	0.0284441
765.291	0.0278337
765.426	0.0269792
765.561	0.0276506
765.695	0.0283831
765.83	0.0271623
765.965	0.0273454
766.099	0.0279558
766.234	0.0274675
766.368	0.0275285
766.503	0.0273454
766.638	0.0269181
766.772	0.0278948
766.907	0.0274675
767.041	0.0278948
767.176	0.0283831
767.311	0.0274065
767.445	0.0275285
767.58	0.0272233
767.715	0.0275896
767.849	0.0273454
767.984	0.0275896
768.118	0.0273454
768.253	0.0275285
768.388	0.0277727
768.522	0.0278948
768.657	0.0271623
768.791	0.0277727
768.926	0.0281389
769.061	0.0272844
769.195	0.0281389
769.33	0.0278948
769.465	0.0281389
769.599	0.0271623
769.734	0.0279558
769.868	0.0273454
770.003	0.0276506
770.138	0.0274675
770.272	0.0281389
770.407	0.0272844
770.541	0.0274675
770.676	0.0277117
770.811	0.0273454
770.945	0.0276506
771.08	0.028261
771.214	0.0285662
771.349	0.0274065
771.484	0.0277117
771.618	0.0280779
771.753	0.0277117
771.887	0.0273454
772.022	0.0279558
772.157	0.0283831
772.291	0.0287493
772.426	0.0275896
772.56	0.0277727
772.695	0.0267961
772.83	0.0286883
772.964	0.0278337
773.099	0.0276506
773.233	0.0273454
773.368	0.0275285
773.503	0.0271013
773.637	0.0275285
773.772	0.0270402
773.906	0.0277727
774.041	0.0274675
774.176	0.0282
774.31	0.026674
774.445	0.0277727
774.579	0.0269792
774.714	0.0277117
774.849	0.0274065
774.983	0.0274065
775.118	0.0275896
775.252	0.0279558
775.387	0.028261
775.522	0.0268571
775.656	0.0279558
775.791	0.0274065
775.925	0.0271623
776.06	0.0275285
776.195	0.0277727
776.329	0.0273454
776.464	0.0276506
776.598	0.0278337
776.733	0.0286272
776.868	0.0282
777.002	0.0280168
777.137	0.0265519
777.271	0.0283831
777.406	0.0279558
777.54	0.0280168
777.675	0.0275285
777.81	0.0275285
777.944	0.0279558
778.079	0.0275285
778.213	0.0275896
778.348	0.0272844
778.483	0.0280168
778.617	0.028261
778.752	0.0271623
778.886	0.028322
779.021	0.0289324
779.155	0.0275285
779.29	0.0271013
779.425	0.0276506
779.559	0.026613
779.694	0.0276506
779.828	0.0275896
779.963	0.0273454
780.098	0.0281389
780.232	0.026674
780.367	0.0278337
780.501	0.0275896
780.636	0.0278337
780.77	0.0278948
780.905	0.0281389
781.04	0.0280168
781.174	0.0273454
781.309	0.028322
781.443	0.0278337
781.578	0.0277117
781.712	0.0286883
781.847	0.0280168
781.982	0.0282
782.116	0.0271013
782.251	0.0275285
782.385	0.0282
782.52	0.0277117
782.654	0.0281389
782.789	0.0274675
782.924	0.028261
783.058	0.0281389
783.193	0.0277727
783.327	0.0274065
783.462	0.0269792
783.596	0.0278948
783.731	0.0276506
783.866	0.0275896
784	0.0269792
784.135	0.0284441
784.269	0.0277117
784.404	0.0288104
784.538	0.0275285
784.673	0.028261
784.808	0.0272233
784.942	0.0278337
785.077	0.0272233
785.211	0.0278337
785.346	0.028261
785.48	0.0270402
785.615	0.0277117
785.75	0.0278337
785.884	0.0278337
786.019	0.0271623
786.153	0.0273454
786.288	0.0275896
786.422	0.0273454
786.557	0.0277117
786.691	0.0281389
786.826	0.0278948
786.961	0.0267961
787.095	0.0282
787.23	0.0274675
787.364	0.0288714
787.499	0.0271623
787.633	0.0289324
787.768	0.0280779
787.902	0.0279558
788.037	0.0277727
788.172	0.0286883
788.306	0.0278948
788.441	0.0280779
788.575	0.0272844
788.71	0.0267961
788.844	0.0276506
788.979	0.0285662
789.113	0.0278337
789.248	0.0285662
789.383	0.0275896
789.517	0.0271623
789.652	0.0278337
789.786	0.0287493
789.921	0.0286272
790.055	0.028322
790.19	0.0270402
790.324	0.0270402
790.459	0.0274675
790.594	0.0278337
790.728	0.028261
790.863	0.0275896
790.997	0.0278948
791.132	0.0283831
791.266	0.0281389
791.401	0.0274675
791.535	0.0277727
791.67	0.0271013
791.804	0.0275896
791.939	0.0271623
792.074	0.028261
792.208	0.0272233
792.343	0.0277727
792.477	0.0274675
792.612	0.0272233
792.746	0.0277727
792.881	0.0272233
793.015	0.0275896
793.15	0.0280779
793.284	0.0278337
793.419	0.0275896
793.553	0.0269792
793.688	0.026674
793.823	0.0278948
793.957	0.0275896
794.092	0.0280168
794.226	0.0274065
794.361	0.026735
794.495	0.0279558
794.63	0.028322
794.764	0.0277727
794.899	0.0285052
795.033	0.0282
795.168	0.0275285
795.302	0.0283831
795.437	0.0278337
795.572	0.0281389
795.706	0.0272233
795.841	0.0276506
795.975	0.0282
796.11	0.0274065
796.244	0.0282
796.379	0.0275285
796.513	0.0275285
796.648	0.0274065
796.782	0.0275896
796.917	0.0275285
797.051	0.0275285
797.186	0.0276506
797.32	0.0275896
797.455	0.0278948
797.589	0.0276506
797.724	0.0287493
797.859	0.0277727
797.993	0.0286883
798.128	0.0276506
798.262	0.0282
798.397	0.0289935
798.531	0.0270402
798.666	0.0275896
798.8	0.0291766
798.935	0.0274675
799.069	0.0275896
799.204	0.0284441
799.338	0.0276506
799.473	0.0270402
799.607	0.0287493
799.742	0.0285052
799.876	0.0285052
800.011	0.0285662
800.145	0.0282
800.28	0.0273454
800.414	0.0281389
800.549	0.0277117
800.683	0.0286272
800.818	0.0279558
800.953	0.0289935
801.087	0.0278337
801.222	0.0278948
801.356	0.0283831
801.491	0.0275285
801.625	0.0286883
801.76	0.0282
801.894	0.0277727
802.029	0.0277117
802.163	0.0289324
802.298	0.0277117
802.432	0.028322
802.567	0.028322
802.701	0.0286272
802.836	0.0281389
802.97	0.0277727
803.105	0.0275896
803.239	0.0281389
803.374	0.0283831
803.508	0.0285052
803.643	0.0274675
803.777	0.0283831
803.912	0.0285052
804.046	0.0280779
804.181	0.0292987
804.315	0.028261
804.45	0.0285052
804.584	0.0280168
804.719	0.0283831
804.853	0.0280168
804.988	0.0285662
805.122	0.0286883
805.257	0.028261
805.391	0.0280168
805.526	0.0290545
805.66	0.0287493
805.795	0.0289324
805.929	0.0289324
806.064	0.0286883
806.198	0.0277117
806.333	0.0284441
806.467	0.0285662
806.602	0.0288104
806.736	0.0289324
806.871	0.0285662
807.005	0.0292376
807.14	0.0295428
807.274	0.0292376
807.409	0.0292987
807.543	0.029787
807.678	0.029787
807.812	0.0295428
807.947	0.0294818
808.081	0.029787
808.216	0.0299091
808.35	0.0297259
808.485	0.0306415
808.619	0.0302142
808.754	0.0315571
808.888	0.0307026
809.023	0.0309467
809.157	0.0313129
809.292	0.0311298
809.426	0.0312519
809.561	0.0317402
809.695	0.0317402
809.83	0.0333272
809.964	0.0329
810.099	0.0346701
810.233	0.0346701
810.368	0.0365013
810.502	0.0358909
810.637	0.036135
810.771	0.0378441
810.906	0.0368064
811.04	0.0394922
811.175	0.040835
811.309	0.0415675
811.444	0.0443753
811.578	0.0469389
811.713	0.0507843
811.847	0.0542025
811.982	0.0746506
812.116	0.147714
812.251	0.339681
812.385	0.420741
812.519	0.29964
812.654	0.268754
812.788	0.761765
812.923	0.993652
813.057	0.99939
813.192	1
813.326	0.996765
813.461	1
813.595	0.994507
813.73	1
813.864	0.992187
813.999	0.997375
814.133	0.987975
814.268	0.990417
814.402	0.983947
814.537	0.981322
814.671	0.975645
814.806	0.964109
814.94	0.956968
815.075	0.762009
815.209	0.239944
815.344	0.101264
815.478	0.0584142
815.612	0.0452909
815.747	0.0421779
815.881	0.0383935
816.016	0.0372948
816.15	0.0366233
816.285	0.0354026
816.419	0.0343039
816.554	0.0350974
816.688	0.0337545
816.823	0.0335714
816.957	0.0324116
817.092	0.0331441
817.226	0.0327779
817.361	0.0316792
817.495	0.0308246
817.63	0.0321675
817.764	0.0325948
817.898	0.0308857
818.033	0.0312519
818.167	0.0299701
818.302	0.0303363
818.436	0.0294818
818.571	0.0302753
818.705	0.0307636
818.84	0.0300311
818.974	0.0286272
819.109	0.0293597
819.243	0.0292987
819.378	0.0291155
819.512	0.0294207
819.646	0.0292987
819.781	0.028322
819.915	0.0289935
820.05	0.0297259
820.184	0.0294818
820.319	0.028261
820.453	0.0285052
820.588	0.0290545
820.722	0.0293597
820.857	0.0290545
820.991	0.0292376
821.126	0.0286883
821.26	0.0281389
821.394	0.0284441
821.529	0.0282
821.663	0.0286272
821.798	0.0280779
821.932	0.0281389
822.067	0.0289935
822.201	0.0285052
822.336	0.0283831
822.47	0.028261
822.605	0.0277117
822.739	0.0291155
822.873	0.0286883
823.008	0.0280168
823.142	0.0277727
823.277	0.0279558
823.411	0.029787
823.546	0.0287493
823.68	0.0294207
823.815	0.0274065
823.949	0.0277117
824.083	0.0287493
824.218	0.0274675
824.352	0.0283831
824.487	0.0271013
824.621	0.0275896
824.756	0.0288104
824.89	0.0282
825.025	0.0281389
825.159	0.0274065
825.293	0.0274675
825.428	0.0278337
825.562	0.0289935
825.697	0.0283831
825.831	0.0277727
825.966	0.0275285
826.1	0.0275896
826.235	0.0284441
826.369	0.0280168
826.503	0.0274675
826.638	0.0282
826.772	0.0277727
826.907	0.0279558
827.041	0.0277117
827.176	0.028261
827.31	0.0281389
827.445	0.0277117
827.579	0.0279558
827.713	0.0280779
827.848	0.0282
827.982	0.0274065
828.117	0.0288104
828.251	0.0275285
828.386	0.0280779
828.52	0.0284441
828.654	0.0283831
828.789	0.0275285
828.923	0.0271623
829.058	0.0281389
829.192	0.026674
829.327	0.0271013
829.461	0.0280168
829.596	0.0278337
829.73	0.0281389
829.864	0.0280168
829.999	0.0274675
830.133	0.0277117
830.268	0.0274065
830.402	0.0271623
830.537	0.0275285
830.671	0.0275896
830.805	0.0276506
830.94	0.0275896
831.074	0.0275285
831.209	0.0278337
831.343	0.0277727
831.478	0.0285052
831.612	0.0280779
831.746	0.0289324
831.881	0.0283831
832.015	0.0280168
832.15	0.0280168
832.284	0.0272233
832.418	0.0288104
832.553	0.0282
832.687	0.028322
832.822	0.0278337
832.956	0.0278337
833.091	0.0270402
833.225	0.0276506
833.359	0.0275285
833.494	0.0271013
833.628	0.0284441
833.763	0.0277117
833.897	0.0273454
834.032	0.0275896
834.166	0.0285662
834.3	0.0277117
834.435	0.0275285
834.569	0.0285052
834.704	0.0273454
834.838	0.0280779
834.972	0.028322
835.107	0.0272233
835.241	0.0285052
835.376	0.0284441
835.51	0.0275285
835.645	0.0278337
835.779	0.0274675
835.913	0.0278948
836.048	0.0275896
836.182	0.0276506
836.317	0.0277117
836.451	0.0280168
836.585	0.0272233
836.72	0.0277727
836.854	0.0274065
836.989	0.0271013
837.123	0.0272233
837.257	0.0277117
837.392	0.0283831
837.526	0.0277117
837.661	0.0275896
837.795	0.0282
837.929	0.0278948
838.064	0.028261
838.198	0.0275896
838.333	0.0275896
838.467	0.0276506
838.602	0.0280168
838.736	0.0272233
838.87	0.0271623
839.005	0.0273454
839.139	0.0280779
839.274	0.0281389
839.408	0.0277727
839.542	0.0277117
839.677	0.0273454
839.811	0.0264298
839.946	0.0269792
840.08	0.0287493
840.214	0.0278948
840.349	0.0283831
840.483	0.0272844
840.618	0.0274065
840.752	0.0270402
840.886	0.0283831
841.021	0.0277727
841.155	0.0281389
841.29	0.0280779
841.424	0.0280779
841.558	0.0274675
841.693	0.0277117
841.827	0.0271013
841.961	0.0276506
842.096	0.0274065
842.23	0.0267961
842.365	0.0278948
842.499	0.0274675
842.633	0.0275896
842.768	0.0272844
842.902	0.0280168
843.037	0.0281389
843.171	0.0269181
843.305	0.0271013
843.44	0.0284441
843.574	0.0278948
843.709	0.0279558
843.843	0.0276506
843.977	0.0276506
844.112	0.0279558
844.246	0.0271013
844.381	0.0275285
844.515	0.0280168
844.649	0.0277117
844.784	0.0271623
844.918	0.028322
845.052	0.0274675
845.187	0.0286272
845.321	0.0273454
845.456	0.0274065
845.59	0.0270402
845.724	0.0277117
845.859	0.0275896
845.993	0.0273454
846.128	0.0277727
846.262	0.0282
846.396	0.0284441
846.531	0.0275285
846.665	0.0276506
846.799	0.0272233
846.934	0.0271013
847.068	0.0286883
847.203	0.0281389
847.337	0.0277727
847.471	0.0283831
847.606	0.0277117
847.74	0.0273454
847.874	0.0274065
848.009	0.0272233
848.143	0.0275285
848.278	0.0279558
848.412	0.0277117
848.546	0.0277727
848.681	0.0275285
848.815	0.0278948
848.949	0.0281389
849.084	0.028322
849.218	0.0275285
849.353	0.0273454
849.487	0.0276506
849.621	0.0269792
849.756	0.0274065
849.89	0.0274065
850.024	0.0276506
850.159	0.028322
850.293	0.0285052
850.428	0.0277727
850.562	0.0282
850.696	0.0274675
850.831	0.0275285
850.965	0.0274675
851.099	0.0273454
851.234	0.0280168
851.368	0.0272844
851.502	0.0269181
851.637	0.0283831
851.771	0.0272233
851.906	0.0277117
852.04	0.0272233
852.174	0.0280779
852.309	0.0272844
852.443	0.0274065
852.577	0.0285662
852.712	0.0280779
852.846	0.0271013
852.98	0.0280779
853.115	0.0274065
853.249	0.0272844
853.384	0.0280168
853.518	0.0272844
853.652	0.0276506
853.787	0.0279558
853.921	0.0275285
854.055	0.0278948
854.19	0.0275896
854.324	0.0283831
854.458	0.0278948
854.593	0.0278337
854.727	0.0269792
854.861	0.0268571
854.996	0.0285662
855.13	0.0270402
855.265	0.0287493
855.399	0.0269181
855.533	0.0277117
855.668	0.0275896
855.802	0.0279558
855.936	0.0283831
856.071	0.0273454
856.205	0.0277727
856.339	0.0280779
856.474	0.0275896
856.608	0.0289324
856.742	0.0272844
856.877	0.0277727
857.011	0.0275285
857.145	0.0277727
857.28	0.028261
857.414	0.0280168
857.549	0.0277117
857.683	0.0275285
857.817	0.0275285
857.952	0.0285052
858.086	0.0278337
858.22	0.0274065
858.355	0.0288104
858.489	0.028322
858.623	0.0280168
858.758	0.0280168
858.892	0.0270402
859.026	0.026735
859.161	0.0271013
859.295	0.0278948
859.429	0.0280168
859.564	0.0274065
859.698	0.0282
859.832	0.0269181
859.967	0.0277727
860.101	0.0272844
860.235	0.0276506
860.37	0.0280168
860.504	0.0268571
860.638	0.0278337
860.773	0.0276506
860.907	0.0282
861.041	0.0278337
861.176	0.0275285
861.31	0.0280168
861.444	0.0274675
861.579	0.0280168
861.713	0.0275896
861.847	0.0276506
861.982	0.0284441
862.116	0.0278948
862.25	0.0271013
862.385	0.0274675
862.519	0.0278948
862.653	0.0282
862.788	0.0275285
862.922	0.0274675
863.056	0.0275896
863.191	0.0286272
863.325	0.0279558
863.459	0.0278337
863.594	0.0271013
863.728	0.0273454
863.862	0.0282
863.997	0.0280168
864.131	0.0278948
864.265	0.0275285
864.4	0.0285662
864.534	0.0277727
864.668	0.0281389
864.803	0.0274065
864.937	0.0280779
865.071	0.0277117
865.206	0.0277727
865.34	0.0274065
865.474	0.0277727
865.609	0.0279558
865.743	0.0281389
865.877	0.0277117
866.012	0.0275896
866.146	0.0278948
866.28	0.028322
866.415	0.0273454
866.549	0.0277727
866.683	0.0272844
866.818	0.0284441
866.952	0.0274675
867.086	0.0281389
867.221	0.026674
867.355	0.0283831
867.489	0.0270402
867.623	0.0283831
867.758	0.0284441
867.892	0.0271623
868.026	0.0271013
868.161	0.0277727
868.295	0.0274675
868.429	0.0283831
868.564	0.0267961
868.698	0.0280779
868.832	0.0274065
868.967	0.0285052
869.101	0.0272233
869.235	0.0287493
869.37	0.0277117
869.504	0.0265519
869.638	0.0276506
869.773	0.0277727
869.907	0.0279558
870.041	0.0277727
870.175	0.0280779
870.31	0.0277117
870.444	0.0282
870.578	0.0286272
870.713	0.0274065
870.847	0.0279558
870.981	0.028322
871.116	0.0275896
871.25	0.0275285
871.384	0.0284441
871.519	0.0271013
871.653	0.0277117
871.787	0.0276506
871.921	0.0286883
872.056	0.0285662
872.19	0.0275896
872.324	0.0277727
872.459	0.0275896
872.593	0.0272233
872.727	0.0274065
872.862	0.0280779
872.996	0.0275285
873.13	0.0271013
873.264	0.028322
873.399	0.0269792
873.533	0.0275285
873.667	0.0278948
873.802	0.0278337
873.936	0.0281389
874.07	0.0275285
874.205	0.0275896
874.339	0.0285662
874.473	0.0270402
874.607	0.0274065
874.742	0.0264909
874.876	0.0277727
875.01	0.028261
875.145	0.0269792
875.279	0.0283831
875.413	0.0279558
875.548	0.0277117
875.682	0.0274675
875.816	0.0278337
875.95	0.0278948
876.085	0.0277117
876.219	0.0276506
876.353	0.0285662
876.488	0.0278948
876.622	0.028261
876.756	0.0276506
876.89	0.0272844
877.025	0.0279558
877.159	0.0272233
877.293	0.0275896
877.428	0.0287493
877.562	0.0275896
877.696	0.0278948
877.83	0.0274675
877.965	0.0271013
878.099	0.0284441
878.233	0.0275285
878.368	0.0274065
878.502	0.0271013
878.636	0.0277727
878.77	0.0282
878.905	0.0272233
879.039	0.0275896
879.173	0.0278337
879.308	0.0280168
879.442	0.0273454
879.576	0.0282
879.71	0.0286883
879.845	0.0282
879.979	0.0279558
880.113	0.0274675
880.248	0.0274675
880.382	0.0273454
880.516	0.0277727
880.65	0.0271013
880.785	0.0282
880.919	0.0277117
881.053	0.0280168
881.188	0.0270402
881.322	0.0269792
881.456	0.0283831
881.59	0.0275896
881.725	0.028322
881.859	0.0278948
881.993	0.0282
882.127	0.0272844
882.262	0.0280779
882.396	0.0267961
882.53	0.0281389
882.665	0.0271013
882.799	0.0272233
882.933	0.0282
883.067	0.0271013
883.202	0.0272844
883.336	0.0275285
883.47	0.0275896
883.604	0.0274065
883.739	0.0277727
883.873	0.0275896
884.007	0.0278337
884.142	0.0273454
884.276	0.0275896
884.41	0.0269792
884.544	0.0277727
884.679	0.0280168
884.813	0.0278948
884.947	0.0278948
885.081	0.0282
885.216	0.0281389
885.35	0.0279558
885.484	0.0280168
885.618	0.0280168
885.753	0.0275285
885.887	0.0275896
886.021	0.0282
886.155	0.0278948
886.29	0.0278948
886.424	0.0277727
886.558	0.0285662
886.693	0.0274675
886.827	0.028261
886.961	0.0275896
887.095	0.0281389
887.23	0.0271623
887.364	0.028322
887.498	0.0275896
887.632	0.0282
887.767	0.0278948
887.901	0.0278948
888.035	0.0277727
888.169	0.0275285
888.304	0.0274675
888.438	0.0287493
888.572	0.0282
888.706	0.0281389
888.841	0.0272233
888.975	0.0272233
889.109	0.0281389
889.243	0.0275896
889.378	0.0274065
889.512	0.0280168
889.646	0.0270402
889.78	0.0280779
889.915	0.0277727
890.049	0.0267961
890.183	0.0280168
890.317	0.0273454
890.452	0.0277117
890.586	0.0281389
890.72	0.0278948
890.854	0.0280168
890.989	0.0274065
891.123	0.0282
891.257	0.0272233
891.391	0.0280168
891.526	0.0281389
891.66	0.0280168
891.794	0.0278337
891.928	0.0280168
892.063	0.0277117
892.197	0.0274675
892.331	0.0271623
892.465	0.0271623
892.6	0.0271013
892.734	0.0274065
892.868	0.0281389
893.002	0.0277727
893.137	0.0277117
893.271	0.0277117
893.405	0.0273454
893.539	0.0278948
893.674	0.0282
893.808	0.0273454
893.942	0.0275285
894.076	0.0280779
894.21	0.0279558
894.345	0.026735
894.479	0.0269181
894.613	0.0275285
894.747	0.0272233
894.882	0.0282
895.016	0.0276506
895.15	0.0275896
895.284	0.0283831
895.419	0.0284441
895.553	0.0282
895.687	0.0273454
895.821	0.0278337
895.956	0.0272844
896.09	0.0277727
896.224	0.0278948
896.358	0.0274065
896.492	0.0270402
896.627	0.0278948
896.761	0.0277727
896.895	0.0272844
897.029	0.0277117
897.164	0.0272233
897.298	0.0274675
897.432	0.0272844
897.566	0.0277117
897.701	0.0273454
897.835	0.0279558
897.969	0.0278337
898.103	0.0271623
898.237	0.0273454
898.372	0.0278337
898.506	0.0277727
898.64	0.0276506
898.774	0.0276506
898.909	0.0280168
899.043	0.0274065
899.177	0.0281389
899.311	0.028261
899.445	0.0274065
899.58	0.026735
899.714	0.0269181
899.848	0.0275896
899.982	0.0280168
900.117	0.0281389
900.251	0.0276506
900.385	0.0278337
900.519	0.0278948
900.653	0.0275285
900.788	0.0272233
900.922	0.0275896
901.056	0.0275285
901.19	0.0265519
901.325	0.0277117
901.459	0.0273454
901.593	0.0275896
901.727	0.0277727
901.861	0.0274675
901.996	0.028322
902.13	0.0274675
902.264	0.0278337
902.398	0.0271013
902.532	0.0280779
902.667	0.0269792
902.801	0.0276506
902.935	0.0280168
903.069	0.0281389
903.204	0.0275285
903.338	0.0275896
903.472	0.0271623
903.606	0.0281389
903.74	0.0277727
903.875	0.0274675
904.009	0.0280168
904.143	0.028322
904.277	0.0275896
904.411	0.0280168
904.546	0.0277117
904.68	0.0280779
904.814	0.0281389
904.948	0.0271013
905.082	0.0268571
905.217	0.0277117
905.351	0.026735
905.485	0.0281389
905.619	0.0279558
905.753	0.0285662
905.888	0.0272233
906.022	0.0286883
906.156	0.0280168
906.29	0.0265519
906.424	0.0281389
906.559	0.0270402
906.693	0.0274675
906.827	0.0278948
906.961	0.0280168
907.095	0.0276506
907.23	0.0280168
907.364	0.0277117
907.498	0.0274065
907.632	0.0278948
907.766	0.0277117
907.901	0.0282
908.035	0.0278948
908.169	0.0263078
908.303	0.0275896
908.437	0.0277117
908.572	0.026735
908.706	0.0277727
908.84	0.0279558
908.974	0.0271623
909.108	0.0275896
909.243	0.0275285
909.377	0.0269792
909.511	0.0271013
909.645	0.0277117
909.779	0.0278337
909.914	0.0274065
910.048	0.0272844
910.182	0.0275896
910.316	0.0270402
910.45	0.0280779
910.585	0.0278948
910.719	0.0277117
910.853	0.0276506
910.987	0.0273454
911.121	0.0283831
911.255	0.0283831
911.39	0.0275285
911.524	0.0281389
911.658	0.0285052
911.792	0.0273454
911.926	0.0275896
912.061	0.0281389
912.195	0.0282
912.329	0.0275285
912.463	0.028322
912.597	0.0269792
912.732	0.0273454
912.866	0.0271013
913	0.0277117
913.134	0.0281389
913.268	0.0274675
913.402	0.0272844
913.537	0.0280168
913.671	0.0271013
913.805	0.0272233
913.939	0.0288104
914.073	0.0272844
914.208	0.0273454
914.342	0.0278948
914.476	0.0275896
914.61	0.0279558
914.744	0.0280779
914.878	0.0272233
915.013	0.0272233
915.147	0.0283831
915.281	0.0271013
915.415	0.0281389
915.549	0.0278337
915.683	0.0282
915.818	0.0274065
915.952	0.0278337
916.086	0.0277727
916.22	0.0268571
916.354	0.0277727
916.488	0.0276506
916.623	0.0274675
916.757	0.0279558
916.891	0.0277117
917.025	0.0275896
917.159	0.0276506
917.293	0.0268571
917.428	0.0278948
917.562	0.0269181
917.696	0.0278948
917.83	0.0282
917.964	0.0275896
918.098	0.0277117
918.233	0.0278948
918.367	0.0272233
918.501	0.0275285
918.635	0.0277117
918.769	0.0271623
918.903	0.0276506
919.038	0.0271623
919.172	0.0279558
919.306	0.0277727
919.44	0.0274675
919.574	0.0276506
919.708	0.0274065
919.843	0.0271623
919.977	0.0275285
920.111	0.0280168
920.245	0.0269181
920.379	0.0277727
920.513	0.0274675
920.648	0.028261
920.782	0.0274065
920.916	0.0273454
921.05	0.0270402
921.184	0.0269181
921.318	0.0275285
921.453	0.0282
921.587	0.0276506
921.721	0.028322
921.855	0.0273454
921.989	0.0279558
922.123	0.0282
922.257	0.0277117
922.392	0.0275896
922.526	0.0275285
922.66	0.0272844
922.794	0.0275285
922.928	0.0264298
923.062	0.0281389
923.197	0.0282
923.331	0.0282
923.465	0.0277727
923.599	0.0277727
923.733	0.0277117
923.867	0.0271013
924.001	0.0283831
924.136	0.0272844
924.27	0.0277117
924.404	0.0278337
924.538	0.0282
924.672	0.0275896
924.806	0.0275285
924.94	0.0274675
925.075	0.0271623
925.209	0.0277117
925.343	0.0279558
925.477	0.028322
925.611	0.0283831
925.745	0.0274675
925.879	0.028322
926.014	0.0280779
926.148	0.028322
926.282	0.0283831
926.416	0.0267961
926.55	0.0279558
926.684	0.0275896
926.818	0.0279558
926.953	0.0278337
927.087	0.0271013
927.221	0.0278948
927.355	0.0278948
927.489	0.0275896
927.623	0.0272844
927.757	0.0277117
927.892	0.0280779
928.026	0.0272233
928.16	0.0278948
928.294	0.0282
928.428	0.0275285
928.562	0.0281389
928.696	0.0272844
928.831	0.0274675
928.965	0.0282
929.099	0.0278337
929.233	0.0269181
929.367	0.0276506
929.501	0.0273454
929.635	0.0275896
929.769	0.0271013
929.904	0.0271623
930.038	0.0280168
930.172	0.0269181
930.306	0.0280779
930.44	0.0276506
930.574	0.0277727
930.708	0.0282
930.843	0.0285052
930.977	0.028322
931.111	0.028261
931.245	0.0275285
931.379	0.0272844
931.513	0.0271013
931.647	0.0267961
931.781	0.0278337
931.916	0.0280779
932.05	0.0277727
932.184	0.0278948
932.318	0.0272844
932.452	0.0271623
932.586	0.0277117
932.72	0.0273454
932.854	0.0278948
932.989	0.0273454
933.123	0.0281389
933.257	0.0272233
933.391	0.0272233
933.525	0.0279558
933.659	0.0278337
933.793	0.0277727
933.927	0.0275896
934.061	0.0271013
934.196	0.0277727
934.33	0.0277117
934.464	0.028322
934.598	0.0282
934.732	0.0278337
934.866	0.028261
935	0.0277117
935.134	0.0270402
935.269	0.0271013
935.403	0.0280168
935.537	0.0269181
935.671	0.0267961
935.805	0.026613
935.939	0.0275285
936.073	0.0280168
936.207	0.0270402
936.341	0.0284441
936.476	0.0277117
936.61	0.0278337
936.744	0.0276506
936.878	0.028261
937.012	0.0274065
937.146	0.0277727
937.28	0.026674
937.414	0.0278948
937.548	0.0275285
937.683	0.0273454
937.817	0.0281389
937.951	0.0272233
938.085	0.0271013
938.219	0.0278948
938.353	0.0275285
938.487	0.0278948
938.621	0.0275285
938.755	0.0275896
938.889	0.0278337
939.024	0.028261
939.158	0.0280779
939.292	0.0279558
939.426	0.0278948
939.56	0.0272844
939.694	0.0272233
939.828	0.0277727
939.962	0.0274065
940.096	0.0280168
940.231	0.0270402
940.365	0.0281389
940.499	0.026735
940.633	0.0269792
940.767	0.0282
940.901	0.0276506
941.035	0.0277117
941.169	0.0280779
941.303	0.0275896
941.437	0.028322
941.571	0.0272233
941.706	0.0273454
941.84	0.0277117
941.974	0.0283831
942.108	0.0281389
942.242	0.0275896
942.376	0.0273454
942.51	0.0278337
942.644	0.028261
942.778	0.0271013
942.912	0.0272233
943.047	0.0277727
943.181	0.0278948
943.315	0.0279558
943.449	0.0269181
943.583	0.0279558
943.717	0.0270402
943.851	0.0280779
943.985	0.0276506
944.119	0.0272844
944.253	0.0277117
944.387	0.0277117
944.522	0.0276506
944.656	0.0264298
944.79	0.0278337
944.924	0.0285052
945.058	0.0279558
945.192	0.0276506
945.326	0.0273454
945.46	0.0280168
945.594	0.026674
945.728	0.0275285
945.862	0.0274065
945.996	0.0277117
946.131	0.0277117
946.265	0.0286272
946.399	0.0276506
946.533	0.0273454
946.667	0.0272233
946.801	0.0272233
946.935	0.0267961
947.069	0.0272844
947.203	0.0272233
947.337	0.0285662
947.471	0.0274675
947.605	0.0274065
947.739	0.0281389
947.874	0.0278337
948.008	0.0280168
948.142	0.0278337
948.276	0.0274675
948.41	0.0278948
948.544	0.0279558
948.678	0.0271623
948.812	0.0276506
948.946	0.0280779
949.08	0.0273454
949.214	0.0272233
949.348	0.0274675
949.482	0.0274675
949.617	0.0280168
949.751	0.0274065
949.885	0.0277117
950.019	0.0271623
950.153	0.0269792
950.287	0.0270402
950.421	0.0271623
950.555	0.0274065
950.689	0.0277727
950.823	0.0275285
950.957	0.0267961
951.091	0.0279558
951.225	0.0286883
951.359	0.026613
951.493	0.0269792
951.628	0.0284441
951.762	0.026674
951.896	0.0279558
952.03	0.0276506
952.164	0.0269792
952.298	0.028261
952.432	0.0269792
952.566	0.0258805
952.7	0.028322
952.834	0.0278337
952.968	0.0274675
953.102	0.0285052
953.236	0.0284441
953.37	0.0274065
953.504	0.0282
953.639	0.0274675
953.773	0.0272233
953.907	0.0269792
954.041	0.0278948
954.175	0.0278948
954.309	0.0274065
954.443	0.0280779
954.577	0.0276506
954.711	0.0280168
954.845	0.0270402
954.979	0.0281389
955.113	0.028261
955.247	0.0271623
955.381	0.0268571
955.515	0.0282
955.649	0.0274675
955.783	0.0269792
955.917	0.028261
956.052	0.0280168
956.186	0.0274675
956.32	0.0284441
956.454	0.0275896
956.588	0.0282
956.722	0.0272844
956.856	0.0280779
956.99	0.0280779
957.124	0.028261
957.258	0.0269792
957.392	0.0272233
957.526	0.0272844
957.66	0.0274065
957.794	0.0284441
957.928	0.0278948
958.062	0.0283831
958.196	0.028261
958.33	0.028322
958.464	0.0272233
958.598	0.0277117
958.733	0.028261
958.867	0.0277727
959.001	0.0277727
959.135	0.0275285
959.269	0.0285662
959.403	0.0281389
959.537	0.0280779
959.671	0.0280168
959.805	0.0274065
959.939	0.0280779
960.073	0.0277117
960.207	0.0277117
960.341	0.0272844
960.475	0.0269181
960.609	0.0265519
960.743	0.0285662
960.877	0.0283831
961.011	0.0277727
961.145	0.028322
961.279	0.0278337
961.413	0.0274065
961.547	0.0275285
961.681	0.028261
961.815	0.0276506
961.949	0.0277727
962.083	0.0275285
962.218	0.0281389
962.352	0.0282
962.486	0.0271013
962.62	0.0271623
962.754	0.0282
962.888	0.0289324
963.022	0.0286883
963.156	0.0286272
963.29	0.028261
963.424	0.0277117
963.558	0.0272844
963.692	0.0282
963.826	0.0277727
963.96	0.0280168
964.094	0.0275896
964.228	0.0280168
964.362	0.026735
964.496	0.0275285
964.63	0.0275896
964.764	0.0286272
964.898	0.026613
965.032	0.0277727
965.166	0.0268571
965.3	0.0274675
965.434	0.0274065
965.568	0.0279558
965.702	0.0278337
965.836	0.0272844
965.97	0.0277727
966.104	0.0277727
966.238	0.0272844
966.372	0.0275896
966.506	0.028261
966.64	0.0271013
966.774	0.0278948
966.908	0.0269181
967.043	0.0274065
967.177	0.0284441
967.311	0.0276506
967.445	0.0276506
967.579	0.0280779
967.713	0.0276506
967.847	0.0272844
967.981	0.0278337
968.115	0.0280168
968.249	0.0275285
968.383	0.028322
968.517	0.0280168
968.651	0.026674
968.785	0.0274675
968.919	0.0272844
969.053	0.0280779
969.187	0.0271013
969.321	0.0280779
969.455	0.026674
969.589	0.028322
969.723	0.0277117
969.857	0.0272233
969.991	0.0278948
970.125	0.026674
970.259	0.0278337
970.393	0.0279558
970.527	0.0271013
970.661	0.0285052
970.795	0.0272233
970.929	0.0273454
971.063	0.0278948
971.197	0.0277117
971.331	0.0272233
971.465	0.0274675
971.599	0.0280779
971.733	0.0275285
971.867	0.0269181
972.001	0.0275285
972.135	0.028261
972.269	0.0277727
972.403	0.0276506
972.537	0.0281389
972.671	0.0282
972.805	0.0273454
972.939	0.0272844
973.073	0.0271623
973.207	0.0278948
973.341	0.0280168
973.475	0.0276506
973.609	0.0276506
973.743	0.0285662
973.877	0.0274675
974.011	0.0273454
974.145	0.0284441
974.279	0.0269181
974.413	0.0279558
974.547	0.0270402
974.681	0.0277117
974.815	0.0275896
974.949	0.0278337
975.083	0.0274675
975.217	0.0279558
975.351	0.0272844
975.485	0.0272844
975.619	0.0278948
975.753	0.0282
975.887	0.0281389
976.021	0.0284441
976.155	0.0278948
976.289	0.0272233
976.423	0.0290545
976.557	0.0278948
976.691	0.0279558
976.825	0.0275285
976.959	0.0274675
977.093	0.0275896
977.227	0.0278948
977.361	0.0275896
977.495	0.0274065
977.629	0.0278948
977.763	0.0274675
977.897	0.0278337
978.031	0.0280779
978.165	0.0273454
978.299	0.0279558
978.433	0.0272844
978.567	0.0278948
978.701	0.0274675
978.835	0.0276506
978.969	0.0265519
979.103	0.0274675
979.237	0.028261
979.371	0.0279558
979.505	0.0277727
979.639	0.0272233
979.773	0.0277117
979.907	0.0271013
980.041	0.0279558
980.175	0.0286272
980.308	0.0275285
980.442	0.0279558
980.576	0.0289935
980.71	0.0277117
980.844	0.0272233
980.978	0.0289324
981.112	0.0268571
981.246	0.0274065
981.38	0.0276506
981.514	0.0272233
981.648	0.0281389
981.782	0.0264909
981.916	0.0277117
982.05	0.0277117
982.184	0.0277117
982.318	0.0275285
982.452	0.0279558
982.586	0.0277727
982.72	0.0274065
982.854	0.0280168
982.988	0.0273454
983.122	0.0271623
983.256	0.0268571
983.39	0.0275285
983.524	0.0280168
983.658	0.0283831
983.792	0.0276506
983.926	0.0274065
984.06	0.0278337
984.194	0.0270402
984.328	0.0283831
984.462	0.0283831
984.596	0.0276506
984.73	0.0278337
984.864	0.0280779
984.998	0.0288714
985.132	0.0278337
985.265	0.028261
985.399	0.026613
985.533	0.0276506
985.667	0.028261
985.801	0.0277117
985.935	0.0278337
986.069	0.0278337
986.203	0.0282
986.337	0.0278948
986.471	0.0275896
986.605	0.0282
986.739	0.0289324
986.873	0.0278948
987.007	0.0280779
987.141	0.0287493
987.275	0.0279558
987.409	0.028261
987.543	0.0270402
987.677	0.0278337
987.811	0.0275896
987.945	0.0280168
988.079	0.0276506
988.213	0.0281389
988.347	0.0272844
988.481	0.0270402
988.614	0.0280168
988.748	0.0283831
988.882	0.0278948
989.016	0.0275285
989.15	0.0278337
989.284	0.0274065
989.418	0.0275285
989.552	0.0286272
989.686	0.0282
989.82	0.0279558
989.954	0.0282
990.088	0.0271013
990.222	0.0275896
990.356	0.0277117
990.49	0.0269792
990.624	0.0275285
990.758	0.0282
990.892	0.0269792
991.026	0.0270402
991.16	0.028322
991.294	0.0280779
991.427	0.028322
991.561	0.0272844
991.695	0.0270402
991.829	0.0272844
991.963	0.0278337
992.097	0.0281389
992.231	0.0269792
992.365	0.0276506
992.499	0.0277117
992.633	0.0274675
992.767	0.0271623
992.901	0.0286883
993.035	0.0264298
993.169	0.0283831
993.303	0.0275896
993.437	0.0278337
993.571	0.0285052
993.704	0.0269181
993.838	0.0273454
993.972	0.028261
994.106	0.0272233
994.24	0.0282
994.374	0.0277727
994.508	0.0271623
994.642	0.0282
994.776	0.0278337
994.91	0.0278337
995.044	0.0279558
995.178	0.0280779
995.312	0.0269181
995.446	0.0274675
995.58	0.0278948
995.714	0.0282
995.847	0.026674
995.981	0.0280779
996.115	0.0275285
996.249	0.0275896
996.383	0.0280168
996.517	0.0274675
996.651	0.0271623
996.785	0.0268571
996.919	0.0273454
997.053	0.0279558
997.187	0.0277727
997.321	0.028322
997.455	0.0279558
997.589	0.0273454
997.722	0.0277727
997.856	0.0270402
997.99	0.0278948
998.124	0.0268571
998.258	0.0275896
998.392	0.0280168
998.526	0.0271623
998.66	0.0274065
998.794	0.0269181
998.928	0.0271623
999.062	0.0267961
999.196	0.0274675
999.33	0.028261
999.464	0.0269792
999.597	0.0267961
999.731	0.0277117
999.865	0.0279558
999.999	0.0282
1000.13	0.0274675
1000.27	0.0273454
1000.4	0.0278948
1000.53	0.0275285
1000.67	0.0275896
1000.8	0.0274065
1000.94	0.0275285
1001.07	0.0272844
1001.2	0.028322
1001.34	0.0275896
1001.47	0.0275896
1001.61	0.0279558
1001.74	0.0272233
1001.87	0.0274675
1002.01	0.0276506
1002.14	0.0272844
1002.28	0.0272844
1002.41	0.0278948
1002.54	0.0273454
1002.68	0.0285662
1002.81	0.0272233
1002.95	0.0282
1003.08	0.0281389
1003.21	0.0272844
1003.35	0.0273454
1003.48	0.0280168
1003.61	0.0279558
1003.75	0.0284441
1003.88	0.0275285
1004.02	0.0272844
1004.15	0.0273454
1004.28	0.0285662
1004.42	0.0280168
1004.55	0.026674
1004.69	0.0275896
1004.82	0.0274065
1004.95	0.0280168
1005.09	0.0275896
1005.22	0.026735
1005.36	0.0277727
1005.49	0.0271013
1005.62	0.0275896
1005.76	0.0270402
1005.89	0.0277117
1006.03	0.0272233
1006.16	0.0271013
1006.29	0.0272233
1006.43	0.0277117
1006.56	0.0278337
1006.69	0.0270402
1006.83	0.0283831
1006.96	0.0278337
1007.1	0.0274675
1007.23	0.0280779
1007.36	0.0269792
1007.5	0.0274675
1007.63	0.0284441
1007.77	0.0278337
1007.9	0.0278948
1008.03	0.0267961
1008.17	0.0278337
1008.3	0.0282
1008.44	0.028261
1008.57	0.0274675
1008.7	0.0283831
1008.84	0.0277117
1008.97	0.0289324
1009.1	0.0273454
1009.24	0.0272233
1009.37	0.0275896
1009.51	0.0274065
1009.64	0.0275285
1009.77	0.0275896
1009.91	0.0274065
1010.04	0.0289324
1010.18	0.0282
1010.31	0.0278948
1010.44	0.0278948
1010.58	0.0272844
1010.71	0.0276506
1010.85	0.0287493
1010.98	0.0270402
1011.11	0.0272233
1011.25	0.0271623
1011.38	0.0273454
1011.51	0.0278948
1011.65	0.0275285
1011.78	0.0277727
1011.92	0.0278337
1012.05	0.0272844
1012.18	0.0275285
1012.32	0.0277727
1012.45	0.0274675
1012.59	0.0275285
1012.72	0.0280168
1012.85	0.0278337
1012.99	0.0274675
1013.12	0.0277727
1013.26	0.0277117
1013.39	0.0280168
1013.52	0.0276506
1013.66	0.0274675
1013.79	0.0280168
1013.92	0.0274675
1014.06	0.0278337
1014.19	0.0274675
1014.33	0.0281389
1014.46	0.0271623
1014.59	0.0280168
1014.73	0.0277727
1014.86	0.0264909
1015	0.0282
1015.13	0.0278948
1015.26	0.0277727
1015.4	0.0274675
1015.53	0.028322
1015.67	0.0277117
1015.8	0.026613
1015.93	0.0272233
1016.07	0.0277727
1016.2	0.0278948
1016.33	0.0267961
1016.47	0.0280168
1016.6	0.0274065
1016.74	0.026674
1016.87	0.0272233
1017	0.0280168
1017.14	0.0269792
1017.27	0.0280168
1017.41	0.0276506
1017.54	0.0273454
1017.67	0.0286272
1017.81	0.0278948
1017.94	0.0280779
1018.07	0.028261
1018.21	0.0279558
1018.34	0.0270402
1018.48	0.0285662
1018.61	0.028261
1018.74	0.0281389
1018.88	0.0277727
1019.01	0.0269792
1019.15	0.0277727
1019.28	0.0278337
1019.41	0.0274065
1019.55	0.0275896
1019.68	0.0277117
1019.82	0.0275285
1019.95	0.0275896
1020.08	0.0274675
1020.22	0.0275896
1020.35	0.0283831
1020.48	0.0271623
1020.62	0.0275896
1020.75	0.0271013
1020.89	0.0277727
1021.02	0.0272233
1021.15	0.0267961
1021.29	0.0275285
1021.42	0.0275896
1021.56	0.0280168
1021.69	0.0278948
1021.82	0.0272233
1021.96	0.0276506
1022.09	0.0274675
1022.22	0.0281389
1022.36	0.0283831
1022.49	0.0272844
1022.63	0.0275896
1022.76	0.0277117
1022.89	0.0274065
1023.03	0.0272844
1023.16	0.0273454
1023.3	0.0275285
1023.43	0.0282
1023.56	0.0276506
1023.7	0.028322
1023.83	0.0273454
1023.96	0.0281389
1024.1	0.0281389
1024.23	0.0284441
1024.37	0.0280779
1024.5	0.0269181
1024.63	0.028261
1024.77	0.0274675
1024.9	0.0272233
1025.04	0.0277117
1025.17	0.0277117
1025.3	0.0272844
1025.44	0.0278948
1025.57	0.0274065
1025.7	0.028322
1025.84	0.0274065
1025.97	0.026674
1026.11	0.0276506
1026.24	0.0280168
1026.37	0.028322
1026.51	0.0274675
1026.64	0.0277117
1026.78	0.0275285
1026.91	0.0277117
1027.04	0.0274065
1027.18	0.0274675
1027.31	0.0279558
1027.44	0.0280779
1027.58	0.0280168
1027.71	0.0278337
1027.85	0.0274675
1027.98	0.0277727
1028.11	0.0262467
1028.25	0.0279558
1028.38	0.0281389
1028.52	0.0285052
1028.65	0.0274065
1028.78	0.0268571
1028.92	0.0279558
1029.05	0.0282
1029.18	0.0273454
1029.32	0.0277727
1029.45	0.0285052
1029.59	0.0274675
1029.72	0.0277117
1029.85	0.0270402
1029.99	0.028322
1030.12	0.0285052
1030.26	0.0271623
1030.39	0.0277117
1030.52	0.0271013
1030.66	0.0281389
1030.79	0.0275285
1030.92	0.0276506
1031.06	0.0269792
1031.19	0.0277727
1031.33	0.0273454
1031.46	0.0265519
1031.59	0.0278337
1031.73	0.0272844
1031.86	0.0276506
1031.99	0.0275285
1032.13	0.0272844
1032.26	0.0272233
1032.4	0.0276506
1032.53	0.0273454
1032.66	0.0278948
1032.8	0.026674
1032.93	0.0274065
1033.07	0.0275285
1033.2	0.0271623
1033.33	0.0276506
1033.47	0.0271623
1033.6	0.0274675
1033.73	0.0270402
1033.87	0.0272233
1034	0.0275896
1034.14	0.026674
1034.27	0.0281389
1034.4	0.0277727
1034.54	0.0280168
1034.67	0.0271623
1034.81	0.0275285
1034.94	0.0272844
1035.07	0.0278948
1035.21	0.0282
1035.34	0.0283831
1035.47	0.0275285
1035.61	0.0283831
1035.74	0.0274065
1035.88	0.0280168
1036.01	0.0277117
1036.14	0.0278337
1036.28	0.0276506
1036.41	0.0278337
1036.54	0.0275285
1036.68	0.0277727
1036.81	0.0270402
1036.95	0.0281389
1037.08	0.0275896
1037.21	0.0273454
1037.35	0.0281389
1037.48	0.0274675
1037.62	0.0274675
1037.75	0.0272233
1037.88	0.0274675
1038.02	0.0285052
1038.15	0.0271623
1038.28	0.0286883
1038.42	0.0277727
1038.55	0.0280779
1038.69	0.0274065
1038.82	0.0278337
1038.95	0.0286272
1039.09	0.0278948
1039.22	0.0286883
1039.35	0.0272844
1039.49	0.0284441
1039.62	0.0275285
1039.76	0.0288104
1039.89	0.0273454
1040.02	0.0278337
1040.16	0.0275285
1040.29	0.0284441
1040.43	0.0271623
1040.56	0.0277727
1040.69	0.0278948
1040.83	0.0280168
1040.96	0.0273454
1041.09	0.0279558
1041.23	0.0278337
1041.36	0.0282
1041.5	0.0277117
1041.63	0.0288104
1041.76	0.0272233
1041.9	0.0275896
1042.03	0.0274065
1042.16	0.0271623
1042.3	0.0282
1042.43	0.0283831
1042.57	0.0291766
1042.7	0.0277117
1042.83	0.0279558
1042.97	0.0288104
1043.1	0.0270402
1043.23	0.0277727
1043.37	0.028322
1043.5	0.0279558
1043.64	0.0278948
1043.77	0.0269181
1043.9	0.0276506
1044.04	0.0275285
1044.17	0.0275285
1044.31	0.0272844
1044.44	0.0283831
1044.57	0.0278337
1044.71	0.0276506
1044.84	0.0275285
1044.97	0.0273454
1045.11	0.0272844
1045.24	0.0270402
1045.38	0.0272844
1045.51	0.0278948
1045.64	0.0282
1045.78	0.0269792
1045.91	0.0275285
1046.04	0.0282
1046.18	0.0277727
1046.31	0.0284441
1046.45	0.0271623
1046.58	0.0274065
1046.71	0.0276506
1046.85	0.0275285
1046.98	0.0271013
1047.11	0.0270402
1047.25	0.0285662
1047.38	0.0275285
1047.52	0.0282
1047.65	0.0272844
1047.78	0.0268571
1047.92	0.026674
1048.05	0.0277727
1048.18	0.0277727
1048.32	0.0274065
1048.45	0.0281389
1048.59	0.0279558
1048.72	0.0277117
1048.85	0.0271623
1048.99	0.0269792
1049.12	0.0269792
1049.25	0.0275285
1049.39	0.0277727
1049.52	0.0281389
1049.66	0.0275896
1049.79	0.0274065
1049.92	0.0277117
1050.06	0.0274675
1050.19	0.0271013
1050.33	0.0264298
1050.46	0.028261
1050.59	0.0271623
1050.73	0.0280168
1050.86	0.0278337
1050.99	0.0278337
1051.13	0.0279558
1051.26	0.0275896
1051.4	0.0273454
1051.53	0.0277117
1051.66	0.0280168
1051.8	0.0271623
1051.93	0.0281389
1052.06	0.0272844
1052.2	0.026735
1052.33	0.0278948
1052.47	0.0277117
1052.6	0.0278337
1052.73	0.0272233
1052.87	0.0280168
1053	0.0274675
1053.13	0.0277117
1053.27	0.0272233
1053.4	0.0280168
1053.54	0.0277727
1053.67	0.0281389
1053.8	0.0278337
1053.94	0.0277727
1054.07	0.0272844
1054.2	0.0286883
1054.34	0.0263688
1054.47	0.028261
1054.61	0.0277727
1054.74	0.0275285
1054.87	0.0278337
1055.01	0.0271013
1055.14	0.0278948
1055.27	0.0277117
1055.41	0.0279558
1055.54	0.0285052
1055.68	0.0270402
1055.81	0.0278948
1055.94	0.0277727
1056.08	0.0269792
1056.21	0.0271623
1056.34	0.0278337
1056.48	0.0281389
1056.61	0.0275896
1056.75	0.0272233
1056.88	0.0278948
1057.01	0.0278948
1057.15	0.0272233
1057.28	0.0270402
1057.41	0.0280168
1057.55	0.0262467
1057.68	0.0267961
1057.82	0.0284441
1057.95	0.0275285
1058.08	0.028322
1058.22	0.0277117
1058.35	0.0275896
1058.48	0.0276506
1058.62	0.0273454
1058.75	0.0265519
1058.89	0.0284441
1059.02	0.0283831
1059.15	0.0272233
1059.29	0.0274675
1059.42	0.0280779
1059.55	0.0277727
1059.69	0.0280779
1059.82	0.0279558
1059.96	0.0277727
1060.09	0.0278337
1060.22	0.0278337
1060.36	0.0274065
1060.49	0.0279558
1060.62	0.0276506
1060.76	0.0277727
1060.89	0.0274065
1061.03	0.0279558
1061.16	0.0280168
1061.29	0.0274675
1061.43	0.0277727
1061.56	0.0272233
1061.69	0.028261
1061.83	0.0272233
1061.96	0.0277727
1062.1	0.0277727
1062.23	0.0275896
1062.36	0.0277117
1062.5	0.0277727
1062.63	0.0271013
1062.76	0.0268571
1062.9	0.0275896
1063.03	0.0275896
1063.17	0.0278948
1063.3	0.0278948
1063.43	0.0284441
1063.57	0.0275285
1063.7	0.0272844
1063.83	0.0275285
1063.97	0.028261
1064.1	0.0286272
1064.23	0.0274675
1064.37	0.0287493
1064.5	0.0286883
1064.64	0.0275285
1064.77	0.0274065
1064.9	0.0280168
1065.04	0.0272844
1065.17	0.0277117
1065.3	0.0274065
1065.44	0.0278948
1065.57	0.0269792
1065.71	0.028322
1065.84	0.0267961
1065.97	0.0279558
1066.11	0.0280168
1066.24	0.0281389
1066.37	0.0275285
1066.51	0.0269181
1066.64	0.0274065
1066.78	0.0276506
1066.91	0.0271013
1067.04	0.0286272
1067.18	0.0278337
1067.31	0.0276506
1067.44	0.026735
1067.58	0.0288714
1067.71	0.0272233
1067.85	0.0279558
1067.98	0.0271013
1068.11	0.0272233
1068.25	0.0278948
1068.38	0.0274675
1068.51	0.0271013
1068.65	0.0281389
1068.78	0.0267961
1068.92	0.0264909
1069.05	0.0280779
1069.18	0.0272844
1069.32	0.0272233
1069.45	0.0277727
1069.58	0.0289935
1069.72	0.0273454
1069.85	0.0272233
1069.98	0.0275896
1070.12	0.0277117
1070.25	0.0277117
1070.39	0.0278337
1070.52	0.0276506
1070.65	0.0280779
1070.79	0.0275285
1070.92	0.0288104
1071.05	0.0274675
1071.19	0.0280168
1071.32	0.0274675
1071.46	0.0285662
1071.59	0.0288714
1071.72	0.0277727
1071.86	0.0278337
1071.99	0.0277117
1072.12	0.0283831
1072.26	0.0278948
1072.39	0.0278948
1072.53	0.0269792
1072.66	0.0280779
1072.79	0.026674
1072.93	0.0277727
1073.06	0.0274065
1073.19	0.0283831
1073.33	0.0270402
1073.46	0.0285052
1073.59	0.0277727
1073.73	0.0275896
1073.86	0.0276506
1074	0.0270402
1074.13	0.0277727
1074.26	0.0275896
1074.4	0.0278948
1074.53	0.0275896
1074.66	0.0277727
1074.8	0.0277727
1074.93	0.0274065
1075.07	0.0274065
1075.2	0.0278337
1075.33	0.0278948
1075.47	0.0286272
1075.6	0.0279558
1075.73	0.0270402
1075.87	0.0286883
1076	0.0278948
1076.14	0.0280168
1076.27	0.0274675
1076.4	0.0275285
1076.54	0.0279558
1076.67	0.0280779
1076.8	0.0278337
1076.94	0.0278948
1077.07	0.0275896
1077.2	0.0273454
1077.34	0.0280779
1077.47	0.0269181
1077.61	0.0278337
1077.74	0.0277727
1077.87	0.0273454
1078.01	0.0277117
1078.14	0.0273454
1078.27	0.0274675
1078.41	0.028322
1078.54	0.0275285
1078.68	0.0284441
1078.81	0.0277117
1078.94	0.0274675
1079.08	0.0268571
1079.21	0.0274065
1079.34	0.0274065
1079.48	0.0272844
1079.61	0.0280779
1079.74	0.0284441
1079.88	0.0274065
1080.01	0.0281389
1080.15	0.0277727
1080.28	0.0273454
1080.41	0.0277117
1080.55	0.0274675
1080.68	0.0284441
1080.81	0.0277727
1080.95	0.0276506
1081.08	0.0279558
1081.22	0.0277117
1081.35	0.0271623
1081.48	0.0282
1081.62	0.0267961
1081.75	0.028322
1081.88	0.0280168
1082.02	0.0272233
1082.15	0.0272233
1082.28	0.0272233
1082.42	0.0271623
1082.55	0.0274675
1082.69	0.0274065
1082.82	0.0272233
1082.95	0.0284441
1083.09	0.0280779
1083.22	0.0278337
1083.35	0.0279558
1083.49	0.0272233
1083.62	0.0274065
1083.75	0.0280168
1083.89	0.0278337
1084.02	0.0275896
1084.16	0.0274675
1084.29	0.0270402
1084.42	0.0275285
1084.56	0.0272233
1084.69	0.0286883
1084.82	0.0272233
1084.96	0.0274065
1085.09	0.0279558
1085.23	0.0277727
1085.36	0.0285662
1085.49	0.0282
1085.63	0.0278337
1085.76	0.0275285
1085.89	0.0275285
1086.03	0.0280168
1086.16	0.0280168
1086.29	0.0276506
1086.43	0.0275285
1086.56	0.0272233
1086.7	0.0275285
1086.83	0.0284441
1086.96	0.0274065
1087.1	0.0263688
1087.23	0.0274065
1087.36	0.0274675
1087.5	0.0278948
1087.63	0.0274675
1087.76	0.0275896
1087.9	0.0273454
1088.03	0.0273454
1088.17	0.0276506
1088.3	0.028322
1088.43	0.0274675
1088.57	0.0274065
1088.7	0.0277117
1088.83	0.0277727
1088.97	0.0277117
1089.1	0.0280168
1089.24	0.0280779
1089.37	0.0279558
1089.5	0.0282
1089.64	0.0280168
1089.77	0.0279558
1089.9	0.0270402
1090.04	0.0273454
1090.17	0.0282
1090.3	0.0273454
1090.44	0.0275896
1090.57	0.0282
1090.71	0.0272233
1090.84	0.0278337
1090.97	0.026674
1091.11	0.0280168
1091.24	0.0272844
1091.37	0.0275896
1091.51	0.0285052
1091.64	0.0283831
1091.77	0.0276506
1091.91	0.0274675
1092.04	0.0277727
1092.18	0.0278337
1092.31	0.0280779
1092.44	0.0278948
1092.58	0.0274065
1092.71	0.0276506
1092.84	0.028261
1092.98	0.0279558
1093.11	0.0273454
1093.24	0.0278337
1093.38	0.0275896
1093.51	0.0275896
1093.65	0.0269792
1093.78	0.0277727
1093.91	0.0278337
1094.05	0.0277117
1094.18	0.0278337
1094.31	0.0277727
1094.45	0.0289324
1094.58	0.0269792
1094.71	0.0273454
1094.85	0.0277727
1094.98	0.0275285
1095.12	0.0285662
1095.25	0.0275896
1095.38	0.0273454
1095.52	0.0272844
1095.65	0.0274065
1095.78	0.0273454
1095.92	0.0286272
1096.05	0.0281389
1096.18	0.0276506
1096.32	0.028322
1096.45	0.0274065
1096.59	0.0278948
1096.72	0.0276506
1096.85	0.0281389
1096.99	0.0276506
1097.12	0.0271013
1097.25	0.0280168
1097.39	0.0284441
1097.52	0.0273454
1097.65	0.0274675
1097.79	0.0278948
1097.92	0.0278337
1098.06	0.0269792
1098.19	0.0280168
1098.32	0.0277727
1098.46	0.0277117
1098.59	0.0275285
1098.72	0.0278948
1098.86	0.0285052
1098.99	0.0278337
1099.12	0.0277117
1099.26	0.0271623
1099.39	0.0280168
1099.53	0.0277117
1099.66	0.0289324
1099.79	0.0278337
1099.93	0.0271623
1100.06	0.0275285
1100.19	0.0278948
1100.33	0.0274675
1100.46	0.0269792
1100.59	0.0271623
1100.73	0.026735
1100.86	0.0279558
1100.99	0.0278337
1101.13	0.0274065
1101.26	0.0274065
1101.4	0.0279558
1101.53	0.0274675
1101.66	0.0270402
1101.8	0.0285662
1101.93	0.0275896
1102.06	0.0274675
1102.2	0.0272844
1102.33	0.0273454
1102.46	0.0274675
1102.6	0.0290545
1102.73	0.0275285
1102.87	0.0274675
1103	0.0277727
1103.13	0.0281389
1103.27	0.028261
1103.4	0.0271623
1103.53	0.0271623
1103.67	0.0277117
1103.8	0.0267961
1103.93	0.0275896
1104.07	0.026735
1104.2	0.0277117
1104.34	0.0281389
1104.47	0.026735
1104.6	0.0278948
1104.74	0.0274675
1104.87	0.0275285
1105	0.0282
1105.14	0.0286883
1105.27	0.0280168
1105.4	0.0278337
1105.54	0.028261
1105.67	0.0272233
1105.8	0.0272844
1105.94	0.0277117
1106.07	0.0277727
1106.21	0.0270402
1106.34	0.0274065
1106.47	0.0277117
1106.61	0.0282
1106.74	0.0275285
1106.87	0.0280779
1107.01	0.0278948
1107.14	0.0284441
1107.27	0.0283831
1107.41	0.0277727
1107.54	0.028322

