Source: Spectrum Viewer

Chart: Pulse Spectrum

Series: 
Wavelength (nm)	S (a.u.)
617.638	0.0278948
617.773	0.0279558
617.908	0.0275285
618.043	0.0281389
618.178	0.0280779
618.313	0.0281389
618.448	0.0277117
618.583	0.0274675
618.718	0.0278337
618.853	0.0284441
618.988	0.0275285
619.123	0.0283831
619.258	0.0271013
619.394	0.0275896
619.529	0.0278948
619.664	0.0282
619.799	0.0277117
619.934	0.0272233
620.069	0.0277727
620.204	0.0278337
620.339	0.0279558
620.474	0.0278948
620.609	0.0272844
620.744	0.0281389
620.879	0.028322
621.014	0.028322
621.149	0.0272844
621.284	0.0270402
621.419	0.0273454
621.554	0.0278948
621.689	0.0280168
621.825	0.0277727
621.96	0.0271013
622.095	0.0273454
622.23	0.028322
622.365	0.0279558
622.5	0.0269181
622.635	0.0270402
622.77	0.0278337
622.905	0.0278948
623.04	0.0277727
623.175	0.0281389
623.31	0.0275896
623.445	0.0279558
623.58	0.0274065
623.715	0.0278948
623.85	0.0277727
623.985	0.0269792
624.12	0.026735
624.255	0.0272844
624.39	0.0278337
624.525	0.0283831
624.661	0.0275896
624.796	0.0276506
624.931	0.0282
625.066	0.0274675
625.201	0.0271623
625.336	0.0278337
625.471	0.0279558
625.606	0.0274675
625.741	0.0280168
625.876	0.0276506
626.011	0.028261
626.146	0.0278948
626.281	0.0283831
626.416	0.0272844
626.551	0.0273454
626.686	0.0280168
626.821	0.0283831
626.956	0.0267961
627.091	0.0272844
627.226	0.0276506
627.361	0.0267961
627.496	0.0276506
627.631	0.0272233
627.766	0.0277727
627.901	0.0281389
628.036	0.0272844
628.171	0.0277117
628.307	0.028322
628.442	0.0274675
628.577	0.0278948
628.712	0.0276506
628.847	0.0277117
628.982	0.0282
629.117	0.0278337
629.252	0.0275285
629.387	0.0274675
629.522	0.0276506
629.657	0.0280168
629.792	0.0279558
629.927	0.0277727
630.062	0.0278337
630.197	0.0274675
630.332	0.028261
630.467	0.0274675
630.602	0.0279558
630.737	0.0285662
630.872	0.0271013
631.007	0.0274675
631.142	0.0279558
631.277	0.028261
631.412	0.0271623
631.547	0.0279558
631.682	0.0272233
631.817	0.0282
631.952	0.028261
632.087	0.0278948
632.222	0.0274065
632.357	0.026735
632.492	0.0272844
632.627	0.0282
632.762	0.0274065
632.897	0.0275896
633.032	0.0277727
633.167	0.0275285
633.302	0.0283831
633.437	0.0273454
633.572	0.0277117
633.707	0.0276506
633.842	0.0275896
633.978	0.0273454
634.113	0.0270402
634.248	0.0279558
634.383	0.0275896
634.518	0.0274065
634.653	0.0271623
634.788	0.0278948
634.923	0.0276506
635.058	0.0281389
635.193	0.0280168
635.328	0.0278948
635.463	0.0272844
635.598	0.0274675
635.733	0.0285662
635.868	0.0276506
636.003	0.0272233
636.138	0.0274675
636.273	0.0271013
636.408	0.0272233
636.543	0.0278337
636.678	0.0272844
636.813	0.0272233
636.948	0.0269792
637.083	0.0277727
637.218	0.0280779
637.353	0.0289324
637.488	0.0275285
637.623	0.0277117
637.758	0.0282
637.893	0.0275285
638.028	0.0273454
638.163	0.0277117
638.298	0.0273454
638.433	0.0278337
638.568	0.0275896
638.703	0.0269792
638.838	0.0272844
638.973	0.0276506
639.108	0.0278948
639.243	0.0279558
639.378	0.0282
639.513	0.0272844
639.648	0.0276506
639.783	0.0272233
639.918	0.0277117
640.053	0.0277727
640.188	0.0275285
640.323	0.0274065
640.458	0.0278948
640.593	0.0274065
640.728	0.0272233
640.863	0.0268571
640.998	0.0276506
641.133	0.0285052
641.268	0.0277727
641.403	0.0283831
641.538	0.0274675
641.673	0.0277117
641.808	0.0269181
641.943	0.0274065
642.078	0.0279558
642.213	0.0277727
642.348	0.0279558
642.483	0.0273454
642.618	0.028261
642.753	0.0278948
642.888	0.0269792
643.023	0.0278337
643.158	0.026735
643.293	0.0285662
643.428	0.0271623
643.563	0.0276506
643.698	0.0277117
643.833	0.0275285
643.968	0.0289324
644.103	0.0271623
644.237	0.0275285
644.372	0.0284441
644.507	0.0283831
644.642	0.0277117
644.777	0.0272233
644.912	0.0270402
645.047	0.0275285
645.182	0.0282
645.317	0.0271623
645.452	0.0276506
645.587	0.0275896
645.722	0.0275896
645.857	0.0275896
645.992	0.0278948
646.127	0.0273454
646.262	0.0275896
646.397	0.0271623
646.532	0.0279558
646.667	0.0269181
646.802	0.028261
646.937	0.0283831
647.072	0.0269792
647.207	0.0275896
647.342	0.0278948
647.477	0.0282
647.612	0.0275285
647.747	0.026674
647.882	0.0279558
648.017	0.0272844
648.152	0.0278948
648.287	0.0281389
648.422	0.0277117
648.557	0.0276506
648.692	0.026613
648.827	0.0288104
648.962	0.0270402
649.097	0.0274675
649.232	0.0281389
649.367	0.0271013
649.502	0.0268571
649.637	0.0272233
649.772	0.028261
649.906	0.0269181
650.041	0.0275285
650.176	0.0274675
650.311	0.0281389
650.446	0.0280168
650.581	0.0274675
650.716	0.0280168
650.851	0.0275896
650.986	0.0270402
651.121	0.0274065
651.256	0.0283831
651.391	0.0275896
651.526	0.0272233
651.661	0.0276506
651.796	0.0273454
651.931	0.0272233
652.066	0.0265519
652.201	0.0280779
652.336	0.0278337
652.471	0.0277727
652.606	0.028261
652.741	0.0278337
652.876	0.0280779
653.011	0.0269181
653.146	0.0274675
653.281	0.0269792
653.415	0.0275285
653.55	0.0272233
653.685	0.0278948
653.82	0.028261
653.955	0.0275896
654.09	0.0271013
654.225	0.0272233
654.36	0.0265519
654.495	0.0269792
654.63	0.0280168
654.765	0.0274675
654.9	0.0267961
655.035	0.0278337
655.17	0.0282
655.305	0.0278948
655.44	0.0272844
655.575	0.0274675
655.71	0.0277727
655.845	0.0284441
655.98	0.0264298
656.115	0.0282
656.25	0.0279558
656.384	0.0277117
656.519	0.0284441
656.654	0.0275896
656.789	0.0278337
656.924	0.028261
657.059	0.0278337
657.194	0.0278948
657.329	0.0279558
657.464	0.0271013
657.599	0.0274675
657.734	0.0282
657.869	0.0277727
658.004	0.0275285
658.139	0.0274065
658.274	0.0269792
658.409	0.0268571
658.544	0.0274065
658.679	0.0275285
658.813	0.0280168
658.948	0.0272233
659.083	0.0264298
659.218	0.0275285
659.353	0.0280168
659.488	0.0272844
659.623	0.0268571
659.758	0.0276506
659.893	0.0272844
660.028	0.0286272
660.163	0.0280168
660.298	0.028322
660.433	0.028261
660.568	0.0279558
660.703	0.0273454
660.838	0.0273454
660.972	0.0279558
661.107	0.0280779
661.242	0.0289935
661.377	0.0278337
661.512	0.0277117
661.647	0.0272844
661.782	0.0276506
661.917	0.028261
662.052	0.0274675
662.187	0.0271013
662.322	0.0277727
662.457	0.0277727
662.592	0.0271623
662.727	0.0272233
662.862	0.0280779
662.996	0.0275285
663.131	0.0285052
663.266	0.028261
663.401	0.0277727
663.536	0.0267961
663.671	0.0274065
663.806	0.0275285
663.941	0.0278948
664.076	0.0281389
664.211	0.0274675
664.346	0.0277727
664.481	0.026735
664.616	0.0276506
664.75	0.0274065
664.885	0.0280168
665.02	0.0269792
665.155	0.028322
665.29	0.0277117
665.425	0.0272844
665.56	0.0272233
665.695	0.0270402
665.83	0.0277117
665.965	0.0285052
666.1	0.0279558
666.235	0.0275896
666.37	0.0280779
666.504	0.0274675
666.639	0.0269792
666.774	0.0272233
666.909	0.0278337
667.044	0.0275285
667.179	0.0272233
667.314	0.0274065
667.449	0.0273454
667.584	0.0271623
667.719	0.0281389
667.854	0.0274065
667.989	0.0270402
668.123	0.0281389
668.258	0.0272233
668.393	0.0269792
668.528	0.0275285
668.663	0.0279558
668.798	0.0275896
668.933	0.0277117
669.068	0.0277117
669.203	0.0278337
669.338	0.0283831
669.473	0.0272233
669.607	0.0272233
669.742	0.0269792
669.877	0.0282
670.012	0.026674
670.147	0.0285052
670.282	0.0277727
670.417	0.0280779
670.552	0.0279558
670.687	0.0273454
670.822	0.0277727
670.957	0.0275285
671.091	0.0275896
671.226	0.0277117
671.361	0.0276506
671.496	0.0278337
671.631	0.0282
671.766	0.0272844
671.901	0.0269792
672.036	0.0281389
672.171	0.0275896
672.306	0.0282
672.44	0.0282
672.575	0.0272844
672.71	0.0272233
672.845	0.0281389
672.98	0.0278948
673.115	0.0274675
673.25	0.0272233
673.385	0.0274065
673.52	0.0277117
673.655	0.0277727
673.789	0.0270402
673.924	0.0272233
674.059	0.0269792
674.194	0.0271623
674.329	0.0277117
674.464	0.0271623
674.599	0.0277117
674.734	0.0274675
674.869	0.0263078
675.003	0.0276506
675.138	0.0280168
675.273	0.0272844
675.408	0.0274065
675.543	0.0282
675.678	0.0274065
675.813	0.0278948
675.948	0.0283831
676.083	0.0272844
676.217	0.0286272
676.352	0.0276506
676.487	0.0267961
676.622	0.0282
676.757	0.026613
676.892	0.0278948
677.027	0.0281389
677.162	0.0274065
677.297	0.0281389
677.431	0.0272844
677.566	0.0278337
677.701	0.0270402
677.836	0.028322
677.971	0.0281389
678.106	0.0275896
678.241	0.0277117
678.376	0.0279558
678.511	0.0276506
678.645	0.0272233
678.78	0.0276506
678.915	0.0275896
679.05	0.0280168
679.185	0.0277727
679.32	0.0274675
679.455	0.028261
679.59	0.0284441
679.724	0.0267961
679.859	0.0279558
679.994	0.0277727
680.129	0.0282
680.264	0.0277727
680.399	0.0272233
680.534	0.0275285
680.669	0.0280168
680.803	0.0280168
680.938	0.0271623
681.073	0.028261
681.208	0.0280168
681.343	0.0275896
681.478	0.0264909
681.613	0.028261
681.748	0.0274065
681.882	0.0277117
682.017	0.0274065
682.152	0.0280168
682.287	0.0272844
682.422	0.0273454
682.557	0.0270402
682.692	0.0286272
682.827	0.0273454
682.961	0.0276506
683.096	0.0278948
683.231	0.0271013
683.366	0.0277117
683.501	0.0281389
683.636	0.0281389
683.771	0.0277727
683.906	0.0274065
684.04	0.0273454
684.175	0.0277727
684.31	0.028261
684.445	0.0274675
684.58	0.0287493
684.715	0.0267961
684.85	0.0279558
684.984	0.0271623
685.119	0.0281389
685.254	0.0276506
685.389	0.0272844
685.524	0.0272233
685.659	0.0279558
685.794	0.0280168
685.928	0.0272233
686.063	0.0269792
686.198	0.0281389
686.333	0.0271013
686.468	0.0285052
686.603	0.028322
686.738	0.0267961
686.872	0.028261
687.007	0.0275285
687.142	0.0270402
687.277	0.0271013
687.412	0.0273454
687.547	0.028261
687.682	0.0284441
687.816	0.0277117
687.951	0.0272233
688.086	0.028322
688.221	0.0269792
688.356	0.028322
688.491	0.0280168
688.626	0.0276506
688.76	0.0270402
688.895	0.0272844
689.03	0.0278337
689.165	0.028322
689.3	0.0286272
689.435	0.0276506
689.57	0.0282
689.704	0.0272844
689.839	0.0276506
689.974	0.0272233
690.109	0.0277117
690.244	0.0285052
690.379	0.0280168
690.513	0.0271623
690.648	0.0278948
690.783	0.0279558
690.918	0.0272844
691.053	0.0277117
691.188	0.0279558
691.323	0.0279558
691.457	0.0279558
691.592	0.0285052
691.727	0.0277117
691.862	0.0271013
691.997	0.0271623
692.132	0.0274675
692.266	0.0280779
692.401	0.0275285
692.536	0.026613
692.671	0.0274675
692.806	0.0277117
692.941	0.0280168
693.075	0.0275896
693.21	0.0271623
693.345	0.0280168
693.48	0.0274065
693.615	0.0280168
693.75	0.0277117
693.885	0.0276506
694.019	0.0277727
694.154	0.0282
694.289	0.028261
694.424	0.0278948
694.559	0.0278337
694.694	0.0279558
694.828	0.0275896
694.963	0.0280779
695.098	0.0281389
695.233	0.0276506
695.368	0.0279558
695.503	0.0267961
695.637	0.0273454
695.772	0.0269792
695.907	0.0280779
696.042	0.0274065
696.177	0.0280168
696.312	0.0274675
696.446	0.0271623
696.581	0.0279558
696.716	0.0279558
696.851	0.0272233
696.986	0.0283831
697.12	0.0280779
697.255	0.0282
697.39	0.0274675
697.525	0.026613
697.66	0.0271623
697.795	0.0274675
697.929	0.0275896
698.064	0.0284441
698.199	0.0273454
698.334	0.028261
698.469	0.026674
698.604	0.0270402
698.738	0.0280779
698.873	0.0289935
699.008	0.0273454
699.143	0.0276506
699.278	0.0278337
699.412	0.0274675
699.547	0.0272233
699.682	0.0272233
699.817	0.0269181
699.952	0.0274675
700.087	0.028322
700.221	0.0269792
700.356	0.0272844
700.491	0.0280779
700.626	0.0271013
700.761	0.028322
700.895	0.0274065
701.03	0.0280779
701.165	0.0271623
701.3	0.0277117
701.435	0.028261
701.57	0.0274675
701.704	0.0275896
701.839	0.0281389
701.974	0.0278337
702.109	0.0274675
702.244	0.0281389
702.378	0.0276506
702.513	0.0274675
702.648	0.028261
702.783	0.0277727
702.918	0.0274675
703.052	0.0274675
703.187	0.0263688
703.322	0.0275896
703.457	0.0272844
703.592	0.0269792
703.727	0.0273454
703.861	0.028261
703.996	0.0276506
704.131	0.0276506
704.266	0.0277117
704.401	0.0272233
704.535	0.0271013
704.67	0.0281389
704.805	0.0275896
704.94	0.0282
705.075	0.0278948
705.209	0.0281389
705.344	0.0271623
705.479	0.0283831
705.614	0.0265519
705.749	0.0279558
705.883	0.0278948
706.018	0.0277117
706.153	0.028322
706.288	0.0278948
706.423	0.0277727
706.557	0.0277117
706.692	0.0274065
706.827	0.0280779
706.962	0.0277117
707.097	0.0274675
707.231	0.0281389
707.366	0.0282
707.501	0.0278948
707.636	0.0286883
707.771	0.0285052
707.905	0.0276506
708.04	0.0282
708.175	0.0273454
708.31	0.0286272
708.445	0.0275285
708.579	0.0276506
708.714	0.0277727
708.849	0.0271013
708.984	0.0273454
709.118	0.0282
709.253	0.0271623
709.388	0.0273454
709.523	0.0269181
709.658	0.0268571
709.792	0.0278337
709.927	0.0285662
710.062	0.0280168
710.197	0.0277727
710.332	0.0275285
710.466	0.0283831
710.601	0.0277117
710.736	0.0285662
710.871	0.0277117
711.006	0.0272233
711.14	0.0274675
711.275	0.0276506
711.41	0.0280779
711.545	0.0277117
711.679	0.0274675
711.814	0.0279558
711.949	0.0269792
712.084	0.0275896
712.219	0.0273454
712.353	0.0278337
712.488	0.028261
712.623	0.0285662
712.758	0.0271013
712.892	0.0273454
713.027	0.0274675
713.162	0.0276506
713.297	0.0279558
713.432	0.0268571
713.566	0.0278948
713.701	0.0285052
713.836	0.0280168
713.971	0.0269181
714.105	0.0275896
714.24	0.0278337
714.375	0.0269792
714.51	0.0274675
714.645	0.0278337
714.779	0.0285662
714.914	0.0269792
715.049	0.0269181
715.184	0.0276506
715.318	0.0285662
715.453	0.0277117
715.588	0.0272233
715.723	0.0271623
715.858	0.0276506
715.992	0.0275896
716.127	0.0272233
716.262	0.0280168
716.397	0.0279558
716.531	0.0277117
716.666	0.0271623
716.801	0.0280168
716.936	0.0277727
717.07	0.0275285
717.205	0.028261
717.34	0.0275896
717.475	0.0274675
717.61	0.0264909
717.744	0.0275285
717.879	0.0272844
718.014	0.0275896
718.149	0.0274065
718.283	0.0278337
718.418	0.0273454
718.553	0.0287493
718.688	0.0274675
718.822	0.0278337
718.957	0.0276506
719.092	0.0277727
719.227	0.0286883
719.361	0.0272233
719.496	0.0274675
719.631	0.0277117
719.766	0.0282
719.9	0.0274065
720.035	0.0273454
720.17	0.028322
720.305	0.0278337
720.44	0.0288104
720.574	0.0281389
720.709	0.0279558
720.844	0.0274675
720.979	0.028322
721.113	0.028261
721.248	0.0268571
721.383	0.0274675
721.518	0.0275285
721.652	0.0285052
721.787	0.0280168
721.922	0.0271623
722.057	0.0278337
722.191	0.0274065
722.326	0.0281389
722.461	0.0272844
722.596	0.0276506
722.73	0.0277727
722.865	0.0276506
723	0.0274675
723.135	0.0272233
723.269	0.0269792
723.404	0.0272844
723.539	0.0273454
723.674	0.0269181
723.808	0.0281389
723.943	0.0277117
724.078	0.0281389
724.213	0.0281389
724.347	0.0274675
724.482	0.0275896
724.617	0.0280168
724.752	0.0274065
724.886	0.0280168
725.021	0.0277117
725.156	0.0269181
725.291	0.0285662
725.425	0.0279558
725.56	0.0271013
725.695	0.0272844
725.829	0.0278948
725.964	0.0271013
726.099	0.0275285
726.234	0.0269792
726.368	0.0277727
726.503	0.0269792
726.638	0.0277117
726.773	0.0275896
726.907	0.0274675
727.042	0.0277117
727.177	0.0280168
727.312	0.026613
727.446	0.0276506
727.581	0.0280779
727.716	0.0275285
727.851	0.0282
727.985	0.0274065
728.12	0.028322
728.255	0.0278337
728.389	0.0278948
728.524	0.0284441
728.659	0.0268571
728.794	0.028322
728.928	0.0282
729.063	0.0278948
729.198	0.0281389
729.333	0.0277727
729.467	0.0269181
729.602	0.0284441
729.737	0.0275896
729.872	0.0283831
730.006	0.0275896
730.141	0.0276506
730.276	0.0279558
730.41	0.0272844
730.545	0.0278337
730.68	0.0275285
730.815	0.0275285
730.949	0.0278337
731.084	0.0264909
731.219	0.0278337
731.354	0.0277117
731.488	0.0278337
731.623	0.0280168
731.758	0.0272233
731.892	0.0275896
732.027	0.0287493
732.162	0.0274065
732.297	0.0283831
732.431	0.0277117
732.566	0.0282
732.701	0.0272233
732.835	0.0277117
732.97	0.028261
733.105	0.0279558
733.24	0.0283831
733.374	0.0275896
733.509	0.0282
733.644	0.0282
733.779	0.0278948
733.913	0.0278337
734.048	0.0279558
734.183	0.0285052
734.317	0.0281389
734.452	0.0271013
734.587	0.0279558
734.722	0.0269792
734.856	0.0277117
734.991	0.0275285
735.126	0.0275285
735.26	0.0278337
735.395	0.0275285
735.53	0.0281389
735.665	0.0269792
735.799	0.0280168
735.934	0.0270402
736.069	0.0276506
736.203	0.0273454
736.338	0.0280779
736.473	0.0281389
736.607	0.0280168
736.742	0.0285052
736.877	0.0272233
737.012	0.0271623
737.146	0.0278948
737.281	0.0279558
737.416	0.0274065
737.55	0.0277727
737.685	0.0275285
737.82	0.0278337
737.955	0.0273454
738.089	0.0281389
738.224	0.0271013
738.359	0.0278948
738.493	0.026674
738.628	0.0274675
738.763	0.0282
738.897	0.0283831
739.032	0.0275285
739.167	0.0279558
739.302	0.0280779
739.436	0.0278948
739.571	0.0274675
739.706	0.0278337
739.84	0.0278337
739.975	0.0278337
740.11	0.0278948
740.244	0.0277117
740.379	0.0275896
740.514	0.026735
740.649	0.0269792
740.783	0.0282
740.918	0.0274065
741.053	0.0278337
741.187	0.0272233
741.322	0.0281389
741.457	0.0280779
741.591	0.0275285
741.726	0.0271013
741.861	0.028261
741.996	0.0275896
742.13	0.0274065
742.265	0.0278948
742.4	0.026735
742.534	0.0277727
742.669	0.0281389
742.804	0.0278337
742.938	0.0277727
743.073	0.028322
743.208	0.0265519
743.342	0.0278948
743.477	0.0276506
743.612	0.0282
743.747	0.0275896
743.881	0.0280168
744.016	0.0281389
744.151	0.0280168
744.285	0.0270402
744.42	0.0277727
744.555	0.0277117
744.689	0.0278337
744.824	0.0278337
744.959	0.0273454
745.093	0.0277727
745.228	0.0282
745.363	0.028261
745.497	0.0274675
745.632	0.0278337
745.767	0.0268571
745.901	0.0275285
746.036	0.0281389
746.171	0.0279558
746.305	0.0283831
746.44	0.0276506
746.575	0.0274675
746.71	0.0269181
746.844	0.0276506
746.979	0.0277117
747.114	0.0277117
747.248	0.0277117
747.383	0.0278337
747.518	0.0280168
747.652	0.0274065
747.787	0.0271623
747.922	0.0279558
748.056	0.0272233
748.191	0.0274065
748.326	0.0279558
748.46	0.0284441
748.595	0.0275285
748.73	0.0285052
748.864	0.0272844
748.999	0.0279558
749.134	0.0271623
749.268	0.0280779
749.403	0.0275896
749.538	0.0263688
749.672	0.0275896
749.807	0.0273454
749.942	0.0278337
750.076	0.0280779
750.211	0.0276506
750.346	0.0273454
750.48	0.0286272
750.615	0.0271623
750.75	0.0275896
750.884	0.0281389
751.019	0.0271013
751.154	0.0269792
751.288	0.0276506
751.423	0.0276506
751.558	0.0278948
751.692	0.0272233
751.827	0.0275896
751.962	0.0269792
752.096	0.0270402
752.231	0.0269792
752.366	0.0276506
752.5	0.0280168
752.635	0.0278337
752.77	0.028261
752.904	0.0278948
753.039	0.0280779
753.174	0.0288104
753.308	0.0281389
753.443	0.0282
753.578	0.0275896
753.712	0.0280779
753.847	0.0277727
753.982	0.0275896
754.116	0.0279558
754.251	0.0279558
754.386	0.0275285
754.52	0.0276506
754.655	0.0272844
754.79	0.0274065
754.924	0.0271013
755.059	0.0272233
755.194	0.0267961
755.328	0.0269792
755.463	0.028322
755.597	0.0277117
755.732	0.0278337
755.867	0.0278337
756.001	0.0277727
756.136	0.0274065
756.271	0.0273454
756.405	0.0264909
756.54	0.028261
756.675	0.0275896
756.809	0.0275896
756.944	0.0275285
757.079	0.0274065
757.213	0.0278337
757.348	0.0272233
757.483	0.0272844
757.617	0.0278948
757.752	0.0275896
757.887	0.0274675
758.021	0.0269181
758.156	0.0280168
758.29	0.0270402
758.425	0.0280779
758.56	0.0277117
758.694	0.0278948
758.829	0.0277727
758.964	0.0271013
759.098	0.028261
759.233	0.0278948
759.368	0.028261
759.502	0.0285052
759.637	0.0273454
759.772	0.0269792
759.906	0.0285052
760.041	0.0278337
760.175	0.0271623
760.31	0.0271013
760.445	0.0268571
760.579	0.0273454
760.714	0.0274065
760.849	0.0276506
760.983	0.028322
761.118	0.0271623
761.253	0.0275896
761.387	0.0278948
761.522	0.0273454
761.656	0.0279558
761.791	0.026674
761.926	0.0280779
762.06	0.0277117
762.195	0.0272844
762.33	0.0275285
762.464	0.026735
762.599	0.0277117
762.733	0.0276506
762.868	0.0274065
763.003	0.0280168
763.137	0.0276506
763.272	0.0280779
763.407	0.0278948
763.541	0.028261
763.676	0.0271623
763.811	0.0275285
763.945	0.026735
764.08	0.0278337
764.214	0.0280779
764.349	0.0285052
764.484	0.0273454
764.618	0.0281389
764.753	0.0269181
764.888	0.0275285
765.022	0.0268571
765.157	0.0275285
765.291	0.0275285
765.426	0.0278948
765.561	0.0278337
765.695	0.0289324
765.83	0.0270402
765.965	0.0278337
766.099	0.0271013
766.234	0.0275896
766.368	0.0272844
766.503	0.0280168
766.638	0.0280168
766.772	0.0278948
766.907	0.0274675
767.041	0.026613
767.176	0.0271623
767.311	0.0277727
767.445	0.0271013
767.58	0.0281389
767.715	0.028322
767.849	0.0267961
767.984	0.0272233
768.118	0.0272844
768.253	0.0285662
768.388	0.0276506
768.522	0.0276506
768.657	0.0282
768.791	0.0280779
768.926	0.0271013
769.061	0.0274065
769.195	0.0274675
769.33	0.0272844
769.465	0.0272233
769.599	0.0279558
769.734	0.028322
769.868	0.0271013
770.003	0.0280168
770.138	0.0278337
770.272	0.0280168
770.407	0.0282
770.541	0.0280168
770.676	0.0275896
770.811	0.0272844
770.945	0.0277727
771.08	0.0277727
771.214	0.0275285
771.349	0.0280168
771.484	0.0277117
771.618	0.028261
771.753	0.0272844
771.887	0.0271013
772.022	0.0292376
772.157	0.0274065
772.291	0.0272233
772.426	0.0284441
772.56	0.0271623
772.695	0.0277727
772.83	0.026735
772.964	0.0270402
773.099	0.0276506
773.233	0.0274675
773.368	0.0274675
773.503	0.0274675
773.637	0.0274675
773.772	0.0282
773.906	0.0280168
774.041	0.0275896
774.176	0.0285052
774.31	0.0276506
774.445	0.0280168
774.579	0.0275896
774.714	0.0273454
774.849	0.0283831
774.983	0.0269792
775.118	0.0277117
775.252	0.0275285
775.387	0.0279558
775.522	0.028322
775.656	0.0272233
775.791	0.0275896
775.925	0.0273454
776.06	0.0274675
776.195	0.0275285
776.329	0.0283831
776.464	0.0274065
776.598	0.0274065
776.733	0.0273454
776.868	0.0275285
777.002	0.0278948
777.137	0.0280168
777.271	0.0279558
777.406	0.0277117
777.54	0.0278948
777.675	0.0269792
777.81	0.0278337
777.944	0.0280779
778.079	0.0280168
778.213	0.0275285
778.348	0.028322
778.483	0.0285052
778.617	0.0277727
778.752	0.0280168
778.886	0.028261
779.021	0.0277727
779.155	0.0286272
779.29	0.0277117
779.425	0.028322
779.559	0.0285662
779.694	0.0267961
779.828	0.0271013
779.963	0.0277727
780.098	0.0274675
780.232	0.0277117
780.367	0.0278948
780.501	0.0273454
780.636	0.0270402
780.77	0.0282
780.905	0.0272844
781.04	0.0273454
781.174	0.0276506
781.309	0.0275896
781.443	0.0282
781.578	0.0277117
781.712	0.028261
781.847	0.028322
781.982	0.0275285
782.116	0.0275285
782.251	0.0272844
782.385	0.0281389
782.52	0.0285052
782.654	0.0278948
782.789	0.0281389
782.924	0.0269181
783.058	0.0270402
783.193	0.0276506
783.327	0.0281389
783.462	0.0276506
783.596	0.0277117
783.731	0.0277117
783.866	0.0276506
784	0.0275285
784.135	0.0275285
784.269	0.0274675
784.404	0.0274675
784.538	0.0277727
784.673	0.0276506
784.808	0.0278337
784.942	0.0267961
785.077	0.0273454
785.211	0.0280779
785.346	0.0274065
785.48	0.0272844
785.615	0.0280779
785.75	0.0274675
785.884	0.0265519
786.019	0.0275896
786.153	0.0273454
786.288	0.0276506
786.422	0.028261
786.557	0.0274675
786.691	0.0279558
786.826	0.0281389
786.961	0.0273454
787.095	0.0268571
787.23	0.0277117
787.364	0.0271623
787.499	0.0275896
787.633	0.0278337
787.768	0.0274065
787.902	0.0277727
788.037	0.0277117
788.172	0.028261
788.306	0.0286883
788.441	0.0285662
788.575	0.0280168
788.71	0.0283831
788.844	0.0276506
788.979	0.0281389
789.113	0.0280168
789.248	0.0279558
789.383	0.0281389
789.517	0.0278337
789.652	0.0275896
789.786	0.0274675
789.921	0.0268571
790.055	0.0275896
790.19	0.0277727
790.324	0.0272844
790.459	0.0279558
790.594	0.0280779
790.728	0.0274675
790.863	0.0275896
790.997	0.0274675
791.132	0.0285052
791.266	0.0282
791.401	0.0276506
791.535	0.0272844
791.67	0.028322
791.804	0.026674
791.939	0.0272844
792.074	0.0273454
792.208	0.0287493
792.343	0.0282
792.477	0.0274675
792.612	0.0284441
792.746	0.0273454
792.881	0.0285052
793.015	0.0271623
793.15	0.0277117
793.284	0.0276506
793.419	0.0277117
793.553	0.0278337
793.688	0.0284441
793.823	0.0285052
793.957	0.0279558
794.092	0.0280779
794.226	0.028261
794.361	0.0280168
794.495	0.028261
794.63	0.0277727
794.764	0.0277727
794.899	0.0276506
795.033	0.0280168
795.168	0.0275285
795.302	0.0276506
795.437	0.0277117
795.572	0.0275896
795.706	0.0275285
795.841	0.0278948
795.975	0.028322
796.11	0.0279558
796.244	0.028322
796.379	0.0281389
796.513	0.0285052
796.648	0.0277117
796.782	0.0275285
796.917	0.0275896
797.051	0.0284441
797.186	0.0275285
797.32	0.0276506
797.455	0.0275285
797.589	0.0274065
797.724	0.0278948
797.859	0.0271013
797.993	0.0282
798.128	0.0280779
798.262	0.0278948
798.397	0.0273454
798.531	0.0282
798.666	0.0284441
798.8	0.028261
798.935	0.0274065
799.069	0.0280779
799.204	0.0278948
799.338	0.0278948
799.473	0.0268571
799.607	0.0280779
799.742	0.0277117
799.876	0.0277117
800.011	0.0272233
800.145	0.0286883
800.28	0.0269181
800.414	0.0275896
800.549	0.0282
800.683	0.0283831
800.818	0.0272844
800.953	0.0280779
801.087	0.0277727
801.222	0.0282
801.356	0.0272233
801.491	0.0275285
801.625	0.0286272
801.76	0.0280168
801.894	0.0282
802.029	0.0285052
802.163	0.028322
802.298	0.0282
802.432	0.0270402
802.567	0.0279558
802.701	0.0277727
802.836	0.0284441
802.97	0.0277117
803.105	0.0275285
803.239	0.0270402
803.374	0.028322
803.508	0.0283831
803.643	0.0282
803.777	0.028322
803.912	0.0286272
804.046	0.0278948
804.181	0.0278337
804.315	0.0282
804.45	0.0278948
804.584	0.0289324
804.719	0.0284441
804.853	0.0274065
804.988	0.0291766
805.122	0.0278948
805.257	0.0286272
805.391	0.0286272
805.526	0.0296039
805.66	0.0286883
805.795	0.0284441
805.929	0.0283831
806.064	0.0284441
806.198	0.0283831
806.333	0.0292987
806.467	0.0293597
806.602	0.0296649
806.736	0.0288714
806.871	0.0286883
807.005	0.0285052
807.14	0.0296039
807.274	0.0302142
807.409	0.0296039
807.543	0.0299091
807.678	0.0297259
807.812	0.0292376
807.947	0.0309467
808.081	0.0300311
808.216	0.0295428
808.35	0.0304584
808.485	0.0304584
808.619	0.0307636
808.754	0.0313129
808.888	0.031435
809.023	0.0316792
809.157	0.0321675
809.292	0.0315571
809.426	0.032961
809.561	0.0329
809.695	0.0328389
809.83	0.0332662
809.964	0.0339376
810.099	0.0349142
810.233	0.0357077
810.368	0.0355857
810.502	0.0369285
810.637	0.0379662
810.771	0.0397974
810.906	0.0413844
811.04	0.0427272
811.175	0.0420558
811.309	0.0441922
811.444	0.0474883
811.578	0.0496856
811.713	0.0619545
811.847	0.094244
811.982	0.663554
812.116	0.996704
812.251	1
812.385	1
812.519	1
812.654	1
812.788	1
812.923	1
813.057	1
813.192	1
813.326	1
813.461	1
813.595	0.997131
813.73	0.997497
813.864	0.992492
813.999	0.991882
814.133	0.986083
814.268	0.982543
814.402	0.97534
814.537	0.965086
814.671	0.958127
814.806	0.81554
814.94	0.407618
815.075	0.499969
815.209	0.869865
815.344	0.841726
815.478	0.392541
815.612	0.0981505
815.747	0.0519441
815.881	0.0453519
816.016	0.0430935
816.15	0.0404077
816.285	0.0394311
816.419	0.0374168
816.554	0.0376
816.688	0.0350363
816.823	0.0364402
816.957	0.0354026
817.092	0.0340597
817.226	0.0327168
817.361	0.0337545
817.495	0.0327168
817.63	0.0329
817.764	0.0319233
817.898	0.0321065
818.033	0.0313129
818.167	0.0313129
818.302	0.0313129
818.436	0.0311298
818.571	0.0302753
818.705	0.0318013
818.84	0.0301532
818.974	0.0307026
819.109	0.0302142
819.243	0.031374
819.378	0.0313129
819.512	0.0302142
819.646	0.0295428
819.781	0.0299701
819.915	0.0289935
820.05	0.0305194
820.184	0.0289324
820.319	0.0295428
820.453	0.0283831
820.588	0.0296039
820.722	0.0286883
820.857	0.0280779
820.991	0.0297259
821.126	0.0291766
821.26	0.0291155
821.394	0.0291155
821.529	0.0288104
821.663	0.0280779
821.798	0.0293597
821.932	0.0285662
822.067	0.028322
822.201	0.0284441
822.336	0.0284441
822.47	0.028322
822.605	0.028261
822.739	0.0275285
822.873	0.0292376
823.008	0.0289935
823.142	0.0289935
823.277	0.028322
823.411	0.0280168
823.546	0.0289935
823.68	0.0277117
823.815	0.0283831
823.949	0.028322
824.083	0.0286272
824.218	0.0280168
824.352	0.028261
824.487	0.0280168
824.621	0.028261
824.756	0.0274675
824.89	0.0283831
825.025	0.0277727
825.159	0.0277117
825.293	0.0272233
825.428	0.0287493
825.562	0.0286272
825.697	0.0278337
825.831	0.0277117
825.966	0.0276506
826.1	0.0282
826.235	0.0261246
826.369	0.0278948
826.503	0.0276506
826.638	0.0279558
826.772	0.0278337
826.907	0.0289935
827.041	0.0282
827.176	0.0280168
827.31	0.0274675
827.445	0.0286272
827.579	0.0277117
827.713	0.0278337
827.848	0.028261
827.982	0.0274675
828.117	0.0275896
828.251	0.0277117
828.386	0.0274675
828.52	0.0285052
828.654	0.028261
828.789	0.0284441
828.923	0.0282
829.058	0.0270402
829.192	0.0275285
829.327	0.0279558
829.461	0.0275285
829.596	0.0277117
829.73	0.0278948
829.864	0.0277727
829.999	0.0273454
830.133	0.0279558
830.268	0.0282
830.402	0.0269181
830.537	0.0275896
830.671	0.0275285
830.805	0.0275285
830.94	0.0280168
831.074	0.0278337
831.209	0.0270402
831.343	0.0278337
831.478	0.0280168
831.612	0.0275896
831.746	0.0282
831.881	0.0278337
832.015	0.0275896
832.15	0.0274065
832.284	0.0285662
832.418	0.0277117
832.553	0.0286272
832.687	0.0271013
832.822	0.0272233
832.956	0.0277117
833.091	0.0282
833.225	0.0278337
833.359	0.0279558
833.494	0.0276506
833.628	0.0274675
833.763	0.0281389
833.897	0.0272844
834.032	0.0275896
834.166	0.0285662
834.3	0.0278948
834.435	0.0277117
834.569	0.0274065
834.704	0.0285052
834.838	0.0274065
834.972	0.028261
835.107	0.0282
835.241	0.0280779
835.376	0.0278337
835.51	0.0272844
835.645	0.0274065
835.779	0.0278948
835.913	0.0272844
836.048	0.0280779
836.182	0.0277727
836.317	0.0267961
836.451	0.0265519
836.585	0.0272844
836.72	0.0279558
836.854	0.0269181
836.989	0.0267961
837.123	0.0277117
837.257	0.0282
837.392	0.0279558
837.526	0.0275896
837.661	0.0269792
837.795	0.0275285
837.929	0.0276506
838.064	0.0276506
838.198	0.0278337
838.333	0.0285052
838.467	0.0274065
838.602	0.0277117
838.736	0.0275285
838.87	0.0274065
839.005	0.0278337
839.139	0.0287493
839.274	0.0279558
839.408	0.0274675
839.542	0.0277117
839.677	0.0270402
839.811	0.0283831
839.946	0.0273454
840.08	0.0273454
840.214	0.0280779
840.349	0.0274065
840.483	0.0282
840.618	0.028322
840.752	0.0272844
840.886	0.0277727
841.021	0.0274065
841.155	0.0277727
841.29	0.0265519
841.424	0.0279558
841.558	0.0273454
841.693	0.0273454
841.827	0.0274065
841.961	0.0275285
842.096	0.0270402
842.23	0.0283831
842.365	0.0280168
842.499	0.0269181
842.633	0.0272233
842.768	0.0277727
842.902	0.028261
843.037	0.0280779
843.171	0.0278337
843.305	0.028322
843.44	0.0278337
843.574	0.0281389
843.709	0.0274675
843.843	0.0273454
843.977	0.028322
844.112	0.0278948
844.246	0.0281389
844.381	0.0276506
844.515	0.0288714
844.649	0.0274065
844.784	0.0271623
844.918	0.0277727
845.052	0.0272844
845.187	0.0272844
845.321	0.0285052
845.456	0.0277727
845.59	0.0286272
845.724	0.028261
845.859	0.028322
845.993	0.0277727
846.128	0.0283831
846.262	0.0261246
846.396	0.0276506
846.531	0.0271013
846.665	0.0274065
846.799	0.0276506
846.934	0.0271623
847.068	0.0289935
847.203	0.0271013
847.337	0.0271623
847.471	0.0272233
847.606	0.0277727
847.74	0.0282
847.874	0.0274065
848.009	0.0270402
848.143	0.0272844
848.278	0.0285052
848.412	0.0270402
848.546	0.0269792
848.681	0.0281389
848.815	0.0281389
848.949	0.0275896
849.084	0.0275285
849.218	0.0281389
849.353	0.0270402
849.487	0.0272844
849.621	0.0277727
849.756	0.0275896
849.89	0.0273454
850.024	0.0275896
850.159	0.0268571
850.293	0.0271623
850.428	0.0274675
850.562	0.0269792
850.696	0.0274675
850.831	0.0280779
850.965	0.0274675
851.099	0.0275285
851.234	0.0276506
851.368	0.0275285
851.502	0.0271623
851.637	0.0272233
851.771	0.0274065
851.906	0.0272233
852.04	0.0286883
852.174	0.0281389
852.309	0.0285662
852.443	0.0264909
852.577	0.0277117
852.712	0.0275896
852.846	0.0278337
852.98	0.0275896
853.115	0.0271013
853.249	0.0289324
853.384	0.0274675
853.518	0.0273454
853.652	0.028261
853.787	0.0277117
853.921	0.0278337
854.055	0.0273454
854.19	0.0277117
854.324	0.0277727
854.458	0.0279558
854.593	0.0270402
854.727	0.0280168
854.861	0.0278337
854.996	0.0275896
855.13	0.0276506
855.265	0.0280779
855.399	0.0277727
855.533	0.0277727
855.668	0.0272233
855.802	0.0278948
855.936	0.0275285
856.071	0.0274065
856.205	0.0282
856.339	0.0279558
856.474	0.0271013
856.608	0.0284441
856.742	0.0277117
856.877	0.0274675
857.011	0.0280779
857.145	0.0271013
857.28	0.028261
857.414	0.0275896
857.549	0.0277727
857.683	0.0272844
857.817	0.0280779
857.952	0.0277117
858.086	0.0273454
858.22	0.0284441
858.355	0.0273454
858.489	0.0268571
858.623	0.028322
858.758	0.0276506
858.892	0.0283831
859.026	0.0278948
859.161	0.0280779
859.295	0.0275896
859.429	0.0280779
859.564	0.0280779
859.698	0.0278337
859.832	0.0268571
859.967	0.0269792
860.101	0.0277727
860.235	0.028322
860.37	0.0275896
860.504	0.0270402
860.638	0.0278337
860.773	0.0274675
860.907	0.0272844
861.041	0.0273454
861.176	0.0274675
861.31	0.0273454
861.444	0.0278948
861.579	0.0279558
861.713	0.0280168
861.847	0.0270402
861.982	0.0276506
862.116	0.0273454
862.25	0.0282
862.385	0.0278337
862.519	0.0275896
862.653	0.0272844
862.788	0.0277117
862.922	0.0281389
863.056	0.0278337
863.191	0.0270402
863.325	0.0277727
863.459	0.0275896
863.594	0.0277117
863.728	0.0277117
863.862	0.0288104
863.997	0.0276506
864.131	0.0274675
864.265	0.0272233
864.4	0.0268571
864.534	0.026613
864.668	0.0274675
864.803	0.0277117
864.937	0.0278337
865.071	0.0278948
865.206	0.0273454
865.34	0.0278337
865.474	0.0278337
865.609	0.0281389
865.743	0.0273454
865.877	0.0286272
866.012	0.0269181
866.146	0.0278337
866.28	0.0275896
866.415	0.028261
866.549	0.0274065
866.683	0.0285052
866.818	0.0278948
866.952	0.0275285
867.086	0.0274675
867.221	0.0277117
867.355	0.0269792
867.489	0.0282
867.623	0.0277727
867.758	0.0274065
867.892	0.0269181
868.026	0.0278948
868.161	0.0270402
868.295	0.0274675
868.429	0.028261
868.564	0.0279558
868.698	0.0275285
868.832	0.0278337
868.967	0.0285662
869.101	0.0275896
869.235	0.0286272
869.37	0.0272844
869.504	0.0277117
869.638	0.0275285
869.773	0.0274675
869.907	0.026735
870.041	0.0277117
870.175	0.0277117
870.31	0.0279558
870.444	0.0271013
870.578	0.0277117
870.713	0.0284441
870.847	0.0276506
870.981	0.0269792
871.116	0.0278337
871.25	0.0274065
871.384	0.0271013
871.519	0.0274675
871.653	0.0286883
871.787	0.0270402
871.921	0.0272233
872.056	0.0277117
872.19	0.0267961
872.324	0.026735
872.459	0.0280168
872.593	0.028261
872.727	0.0270402
872.862	0.0268571
872.996	0.0280779
873.13	0.0270402
873.264	0.0277117
873.399	0.0272233
873.533	0.0270402
873.667	0.0274675
873.802	0.0271013
873.936	0.0269181
874.07	0.0275285
874.205	0.0272844
874.339	0.0274675
874.473	0.0274065
874.607	0.0275285
874.742	0.0281389
874.876	0.0271623
875.01	0.0271013
875.145	0.0269792
875.279	0.0282
875.413	0.0276506
875.548	0.0280779
875.682	0.0280168
875.816	0.0277727
875.95	0.0274675
876.085	0.0280168
876.219	0.0271623
876.353	0.0271013
876.488	0.0279558
876.622	0.0282
876.756	0.0274065
876.89	0.0278948
877.025	0.0274065
877.159	0.0274065
877.293	0.0285052
877.428	0.0268571
877.562	0.0278337
877.696	0.0275896
877.83	0.0274065
877.965	0.0276506
878.099	0.0275896
878.233	0.0278948
878.368	0.0275285
878.502	0.0279558
878.636	0.0272844
878.77	0.0272233
878.905	0.0269181
879.039	0.0279558
879.173	0.0271623
879.308	0.0278337
879.442	0.0277117
879.576	0.026735
879.71	0.0274065
879.845	0.0280168
879.979	0.0281389
880.113	0.0281389
880.248	0.0275896
880.382	0.0272233
880.516	0.0279558
880.65	0.0275285
880.785	0.0270402
880.919	0.0280168
881.053	0.0280779
881.188	0.0278948
881.322	0.0278948
881.456	0.0278948
881.59	0.0279558
881.725	0.0285052
881.859	0.0270402
881.993	0.0275896
882.127	0.028322
882.262	0.0272233
882.396	0.0278948
882.53	0.0271013
882.665	0.0272233
882.799	0.0277727
882.933	0.0280779
883.067	0.0272844
883.202	0.0279558
883.336	0.0273454
883.47	0.0270402
883.604	0.0278337
883.739	0.0278948
883.873	0.028322
884.007	0.0272844
884.142	0.0277727
884.276	0.0274065
884.41	0.0265519
884.544	0.0273454
884.679	0.0279558
884.813	0.0275896
884.947	0.0273454
885.081	0.0275285
885.216	0.0275896
885.35	0.0283831
885.484	0.0277727
885.618	0.0276506
885.753	0.0272233
885.887	0.0283831
886.021	0.0281389
886.155	0.028322
886.29	0.0275896
886.424	0.0272233
886.558	0.0273454
886.693	0.0274065
886.827	0.0285052
886.961	0.0275896
887.095	0.0282
887.23	0.0280168
887.364	0.0277117
887.498	0.0271623
887.632	0.0273454
887.767	0.028322
887.901	0.0278948
888.035	0.0274065
888.169	0.0277727
888.304	0.0277727
888.438	0.0282
888.572	0.0272233
888.706	0.0272844
888.841	0.0280779
888.975	0.028261
889.109	0.0281389
889.243	0.0277117
889.378	0.0275285
889.512	0.0270402
889.646	0.0278337
889.78	0.0278337
889.915	0.0274675
890.049	0.0277727
890.183	0.0280168
890.317	0.0275896
890.452	0.0270402
890.586	0.0281389
890.72	0.0280779
890.854	0.0273454
890.989	0.0280168
891.123	0.0273454
891.257	0.0270402
891.391	0.0274065
891.526	0.026613
891.66	0.0271623
891.794	0.0270402
891.928	0.0284441
892.063	0.0275285
892.197	0.0270402
892.331	0.0278337
892.465	0.0277727
892.6	0.0263688
892.734	0.028261
892.868	0.0278948
893.002	0.0286272
893.137	0.0277727
893.271	0.0270402
893.405	0.0275285
893.539	0.0278948
893.674	0.0277727
893.808	0.0272233
893.942	0.0275896
894.076	0.0280168
894.21	0.0280168
894.345	0.0271623
894.479	0.0280168
894.613	0.0275285
894.747	0.0272844
894.882	0.0272844
895.016	0.0275896
895.15	0.0279558
895.284	0.0283831
895.419	0.0277117
895.553	0.0275285
895.687	0.0274065
895.821	0.0275285
895.956	0.0271623
896.09	0.0275896
896.224	0.0274675
896.358	0.0270402
896.492	0.0289324
896.627	0.0283831
896.761	0.0273454
896.895	0.0275896
897.029	0.0272844
897.164	0.0271623
897.298	0.0277727
897.432	0.0282
897.566	0.0275896
897.701	0.0271623
897.835	0.0287493
897.969	0.028322
898.103	0.0278337
898.237	0.0279558
898.372	0.0272233
898.506	0.0278948
898.64	0.028261
898.774	0.0275896
898.909	0.0274675
899.043	0.0277727
899.177	0.0274065
899.311	0.0282
899.445	0.0280779
899.58	0.0286883
899.714	0.0280168
899.848	0.0275896
899.982	0.0280168
900.117	0.0269792
900.251	0.0277727
900.385	0.0275285
900.519	0.0272233
900.653	0.0275896
900.788	0.0275896
900.922	0.0279558
901.056	0.026674
901.19	0.0264298
901.325	0.0276506
901.459	0.0272233
901.593	0.0286883
901.727	0.0278337
901.861	0.0275285
901.996	0.0272844
902.13	0.0273454
902.264	0.0278337
902.398	0.0280779
902.532	0.0278337
902.667	0.0276506
902.801	0.0272844
902.935	0.0275896
903.069	0.0275896
903.204	0.0278948
903.338	0.0269792
903.472	0.0277117
903.606	0.0286883
903.74	0.0280168
903.875	0.0277727
904.009	0.0280779
904.143	0.0284441
904.277	0.0277727
904.411	0.0279558
904.546	0.0278948
904.68	0.0275896
904.814	0.0272233
904.948	0.0277117
905.082	0.0269792
905.217	0.0275285
905.351	0.0275896
905.485	0.0273454
905.619	0.0275285
905.753	0.0280779
905.888	0.0269181
906.022	0.0279558
906.156	0.0278948
906.29	0.0282
906.424	0.0271623
906.559	0.026735
906.693	0.0277727
906.827	0.0277727
906.961	0.0269181
907.095	0.028261
907.23	0.0274675
907.364	0.0277727
907.498	0.0274065
907.632	0.0270402
907.766	0.0274675
907.901	0.0277727
908.035	0.0274675
908.169	0.0272233
908.303	0.0272233
908.437	0.0279558
908.572	0.0278337
908.706	0.0275896
908.84	0.0278337
908.974	0.0281389
909.108	0.0269181
909.243	0.0279558
909.377	0.0277117
909.511	0.0277727
909.645	0.0271623
909.779	0.0282
909.914	0.0274675
910.048	0.0281389
910.182	0.0269792
910.316	0.0277727
910.45	0.0274065
910.585	0.0275285
910.719	0.028322
910.853	0.0274675
910.987	0.0269792
911.121	0.0273454
911.255	0.0273454
911.39	0.028261
911.524	0.0280168
911.658	0.0272233
911.792	0.0275285
911.926	0.0279558
912.061	0.0269181
912.195	0.0270402
912.329	0.0278337
912.463	0.0282
912.597	0.026613
912.732	0.0280168
912.866	0.0277727
913	0.0277727
913.134	0.0273454
913.268	0.0273454
913.402	0.0281389
913.537	0.0277727
913.671	0.0284441
913.805	0.0271623
913.939	0.0272844
914.073	0.0284441
914.208	0.0277117
914.342	0.0279558
914.476	0.0278948
914.61	0.0272844
914.744	0.0279558
914.878	0.0272844
915.013	0.0289324
915.147	0.0275285
915.281	0.0270402
915.415	0.0279558
915.549	0.0280779
915.683	0.0278337
915.818	0.0274675
915.952	0.0285052
916.086	0.0272233
916.22	0.0283831
916.354	0.0285662
916.488	0.0271623
916.623	0.0274065
916.757	0.0278948
916.891	0.0274675
917.025	0.0282
917.159	0.0279558
917.293	0.0277117
917.428	0.0272844
917.562	0.0275285
917.696	0.0276506
917.83	0.0275896
917.964	0.0277117
918.098	0.0273454
918.233	0.0272844
918.367	0.0277117
918.501	0.0280779
918.635	0.0282
918.769	0.0276506
918.903	0.0274065
919.038	0.0278337
919.172	0.0275896
919.306	0.0278948
919.44	0.0276506
919.574	0.0275896
919.708	0.0268571
919.843	0.0274675
919.977	0.0275285
920.111	0.0279558
920.245	0.028322
920.379	0.0278948
920.513	0.0282
920.648	0.026735
920.782	0.0272844
920.916	0.0278948
921.05	0.0286272
921.184	0.0278948
921.318	0.0277117
921.453	0.0278948
921.587	0.0278337
921.721	0.0273454
921.855	0.0280779
921.989	0.0269181
922.123	0.0277727
922.257	0.0269792
922.392	0.0275896
922.526	0.0274675
922.66	0.0277117
922.794	0.0278948
922.928	0.0274675
923.062	0.0272233
923.197	0.0275285
923.331	0.0274065
923.465	0.0280779
923.599	0.0280779
923.733	0.0270402
923.867	0.0277727
924.001	0.0271013
924.136	0.0282
924.27	0.0269181
924.404	0.0278948
924.538	0.028261
924.672	0.0280168
924.806	0.0278337
924.94	0.0286272
925.075	0.0286883
925.209	0.0274065
925.343	0.0275896
925.477	0.0270402
925.611	0.0278948
925.745	0.0279558
925.879	0.0274675
926.014	0.0278337
926.148	0.0287493
926.282	0.0279558
926.416	0.0283831
926.55	0.0278337
926.684	0.0279558
926.818	0.0275896
926.953	0.0278337
927.087	0.0274065
927.221	0.0273454
927.355	0.0277727
927.489	0.0276506
927.623	0.0274675
927.757	0.028261
927.892	0.0274065
928.026	0.0275896
928.16	0.028261
928.294	0.0278948
928.428	0.0279558
928.562	0.0272233
928.696	0.0272233
928.831	0.0275285
928.965	0.0269181
929.099	0.0270402
929.233	0.0272233
929.367	0.0271623
929.501	0.0279558
929.635	0.0270402
929.769	0.0274065
929.904	0.0263688
930.038	0.0267961
930.172	0.0278948
930.306	0.0275285
930.44	0.0273454
930.574	0.0271623
930.708	0.0282
930.843	0.0277117
930.977	0.0274065
931.111	0.0284441
931.245	0.0277117
931.379	0.0274675
931.513	0.0274065
931.647	0.0275896
931.781	0.0273454
931.916	0.0271623
932.05	0.0274065
932.184	0.0283831
932.318	0.0272844
932.452	0.0272233
932.586	0.028322
932.72	0.0276506
932.854	0.0279558
932.989	0.0278337
933.123	0.0279558
933.257	0.0271013
933.391	0.0278948
933.525	0.0271623
933.659	0.0276506
933.793	0.0269181
933.927	0.0281389
934.061	0.0276506
934.196	0.0274065
934.33	0.0274065
934.464	0.0275896
934.598	0.0280168
934.732	0.0279558
934.866	0.0274065
935	0.0269792
935.134	0.0282
935.269	0.0289324
935.403	0.0281389
935.537	0.0282
935.671	0.0271013
935.805	0.0285052
935.939	0.0274065
936.073	0.0279558
936.207	0.028322
936.341	0.0274675
936.476	0.0276506
936.61	0.0278337
936.744	0.0274065
936.878	0.0285052
937.012	0.0280779
937.146	0.0275896
937.28	0.0274675
937.414	0.0272844
937.548	0.0278337
937.683	0.0282
937.817	0.0275285
937.951	0.0275896
938.085	0.0269792
938.219	0.0275285
938.353	0.0279558
938.487	0.0274675
938.621	0.0275896
938.755	0.0272233
938.889	0.0274675
939.024	0.0271623
939.158	0.0271013
939.292	0.0275285
939.426	0.0278948
939.56	0.0274065
939.694	0.0282
939.828	0.0279558
939.962	0.0280168
940.096	0.0276506
940.231	0.0272233
940.365	0.0272233
940.499	0.0275285
940.633	0.0271013
940.767	0.026735
940.901	0.0269792
941.035	0.0276506
941.169	0.0271013
941.303	0.028261
941.437	0.0272844
941.571	0.0272844
941.706	0.028261
941.84	0.0270402
941.974	0.0277117
942.108	0.0285052
942.242	0.0282
942.376	0.0271013
942.51	0.0292376
942.644	0.028322
942.778	0.0272233
942.912	0.0276506
943.047	0.0282
943.181	0.0272844
943.315	0.0269792
943.449	0.026735
943.583	0.0280168
943.717	0.0280779
943.851	0.0272233
943.985	0.0275896
944.119	0.0272844
944.253	0.0283831
944.387	0.0273454
944.522	0.0274675
944.656	0.0276506
944.79	0.0275285
944.924	0.0278948
945.058	0.0286272
945.192	0.0271623
945.326	0.0274065
945.46	0.0277117
945.594	0.0281389
945.728	0.0276506
945.862	0.0274065
945.996	0.0280168
946.131	0.0273454
946.265	0.0277117
946.399	0.0281389
946.533	0.0273454
946.667	0.0276506
946.801	0.0278337
946.935	0.0273454
947.069	0.0276506
947.203	0.0279558
947.337	0.0285662
947.471	0.0278337
947.605	0.0275285
947.739	0.0271623
947.874	0.0277117
948.008	0.0265519
948.142	0.028322
948.276	0.0278337
948.41	0.0272233
948.544	0.0277117
948.678	0.0277727
948.812	0.0278948
948.946	0.0269181
949.08	0.0275285
949.214	0.0271623
949.348	0.0274675
949.482	0.0275896
949.617	0.0273454
949.751	0.0265519
949.885	0.0276506
950.019	0.0267961
950.153	0.0272844
950.287	0.0285662
950.421	0.0268571
950.555	0.0280779
950.689	0.0272844
950.823	0.0278948
950.957	0.0278337
951.091	0.0271623
951.225	0.0272844
951.359	0.0276506
951.493	0.0277727
951.628	0.0280168
951.762	0.0275285
951.896	0.0282
952.03	0.0278337
952.164	0.0276506
952.298	0.0269792
952.432	0.0277117
952.566	0.0275896
952.7	0.0285662
952.834	0.0270402
952.968	0.0276506
953.102	0.0278337
953.236	0.0271623
953.37	0.0281389
953.504	0.0278948
953.639	0.0278337
953.773	0.0275285
953.907	0.0283831
954.041	0.0272233
954.175	0.0272844
954.309	0.0271623
954.443	0.0271623
954.577	0.0273454
954.711	0.0275896
954.845	0.0274675
954.979	0.0280779
955.113	0.0282
955.247	0.0280779
955.381	0.0281389
955.515	0.0275285
955.649	0.0273454
955.783	0.0273454
955.917	0.0280168
956.052	0.026735
956.186	0.0279558
956.32	0.0282
956.454	0.0282
956.588	0.0274065
956.722	0.0282
956.856	0.0274675
956.99	0.0284441
957.124	0.0274675
957.258	0.0282
957.392	0.0280168
957.526	0.0271013
957.66	0.0275896
957.794	0.0275285
957.928	0.0274675
958.062	0.0277117
958.196	0.0278948
958.33	0.0279558
958.464	0.0276506
958.598	0.0280168
958.733	0.0278337
958.867	0.0275285
959.001	0.0273454
959.135	0.0275285
959.269	0.0269792
959.403	0.0280779
959.537	0.0273454
959.671	0.0274065
959.805	0.026613
959.939	0.0280168
960.073	0.0277117
960.207	0.0271623
960.341	0.0277117
960.475	0.0281389
960.609	0.0274675
960.743	0.028322
960.877	0.0275285
961.011	0.0275896
961.145	0.0278948
961.279	0.028322
961.413	0.0279558
961.547	0.0271623
961.681	0.0279558
961.815	0.0281389
961.949	0.0275285
962.083	0.0285662
962.218	0.028261
962.352	0.0284441
962.486	0.0283831
962.62	0.0281389
962.754	0.0275896
962.888	0.0275896
963.022	0.0275285
963.156	0.0274675
963.29	0.028322
963.424	0.0277727
963.558	0.0285052
963.692	0.0275285
963.826	0.0280168
963.96	0.0276506
964.094	0.0280168
964.228	0.0278948
964.362	0.0268571
964.496	0.0277727
964.63	0.0285662
964.764	0.0274065
964.898	0.0268571
965.032	0.0270402
965.166	0.0272233
965.3	0.0274065
965.434	0.0271623
965.568	0.0279558
965.702	0.0269792
965.836	0.0275285
965.97	0.0273454
966.104	0.028261
966.238	0.0271013
966.372	0.0282
966.506	0.0274675
966.64	0.0280779
966.774	0.0269792
966.908	0.0268571
967.043	0.0277117
967.177	0.0280779
967.311	0.0275285
967.445	0.0275285
967.579	0.0271623
967.713	0.0273454
967.847	0.0286883
967.981	0.0274675
968.115	0.0280168
968.249	0.0277727
968.383	0.0276506
968.517	0.0278337
968.651	0.0277727
968.785	0.0280168
968.919	0.0269792
969.053	0.0276506
969.187	0.0264909
969.321	0.0278948
969.455	0.0275896
969.589	0.028322
969.723	0.0270402
969.857	0.0277117
969.991	0.0280168
970.125	0.0280779
970.259	0.0264909
970.393	0.0277727
970.527	0.0272844
970.661	0.0274065
970.795	0.0277117
970.929	0.0275285
971.063	0.0273454
971.197	0.0275285
971.331	0.0275896
971.465	0.0278948
971.599	0.0273454
971.733	0.0280779
971.867	0.0274675
972.001	0.0274675
972.135	0.028322
972.269	0.0272844
972.403	0.0285662
972.537	0.0267961
972.671	0.0271623
972.805	0.0283831
972.939	0.0277117
973.073	0.0274065
973.207	0.0272844
973.341	0.0268571
973.475	0.0285052
973.609	0.0274675
973.743	0.0278948
973.877	0.0278337
974.011	0.0272233
974.145	0.0269181
974.279	0.0273454
974.413	0.0275896
974.547	0.0271623
974.681	0.0273454
974.815	0.0267961
974.949	0.0276506
975.083	0.0274065
975.217	0.0280779
975.351	0.0286883
975.485	0.0280779
975.619	0.0273454
975.753	0.0273454
975.887	0.0271623
976.021	0.0277117
976.155	0.0271623
976.289	0.0274675
976.423	0.0269181
976.557	0.0278337
976.691	0.0272233
976.825	0.0282
976.959	0.0280168
977.093	0.0274675
977.227	0.0270402
977.361	0.0281389
977.495	0.0286883
977.629	0.0272844
977.763	0.0271623
977.897	0.0277117
978.031	0.0276506
978.165	0.0267961
978.299	0.0272233
978.433	0.0286272
978.567	0.0275285
978.701	0.0272844
978.835	0.0277117
978.969	0.028261
979.103	0.0280779
979.237	0.0274065
979.371	0.0272233
979.505	0.0277727
979.639	0.0280779
979.773	0.0272233
979.907	0.0272233
980.041	0.0280168
980.175	0.0278948
980.308	0.0280168
980.442	0.0274675
980.576	0.0286272
980.71	0.0275896
980.844	0.0277727
980.978	0.0273454
981.112	0.0276506
981.246	0.0275285
981.38	0.0279558
981.514	0.0285052
981.648	0.0286883
981.782	0.0275285
981.916	0.0279558
982.05	0.0275285
982.184	0.0282
982.318	0.0268571
982.452	0.0276506
982.586	0.0270402
982.72	0.0277727
982.854	0.0271013
982.988	0.0271013
983.122	0.0277727
983.256	0.0276506
983.39	0.0274065
983.524	0.0274675
983.658	0.0277117
983.792	0.028261
983.926	0.0272844
984.06	0.0280168
984.194	0.0272233
984.328	0.0280168
984.462	0.0277727
984.596	0.0286272
984.73	0.0275285
984.864	0.0270402
984.998	0.0278337
985.132	0.0277727
985.265	0.0276506
985.399	0.0271013
985.533	0.026613
985.667	0.0275285
985.801	0.0277727
985.935	0.0278337
986.069	0.0274065
986.203	0.0278948
986.337	0.0279558
986.471	0.028261
986.605	0.0274675
986.739	0.0276506
986.873	0.0280168
987.007	0.0270402
987.141	0.0277727
987.275	0.0269792
987.409	0.0273454
987.543	0.0271623
987.677	0.0269792
987.811	0.0275896
987.945	0.0273454
988.079	0.0274065
988.213	0.0276506
988.347	0.0269181
988.481	0.0261857
988.614	0.0272844
988.748	0.0275896
988.882	0.0270402
989.016	0.0274065
989.15	0.0271623
989.284	0.0276506
989.418	0.0281389
989.552	0.0272233
989.686	0.0280779
989.82	0.0269181
989.954	0.0271013
990.088	0.0279558
990.222	0.0269181
990.356	0.0272844
990.49	0.0278948
990.624	0.0275285
990.758	0.0274675
990.892	0.0281389
991.026	0.0289935
991.16	0.0271623
991.294	0.0277727
991.427	0.0278337
991.561	0.0272233
991.695	0.0275896
991.829	0.0276506
991.963	0.0285052
992.097	0.0273454
992.231	0.0277117
992.365	0.0273454
992.499	0.0275285
992.633	0.0272233
992.767	0.0271013
992.901	0.0280779
993.035	0.0272233
993.169	0.0283831
993.303	0.0279558
993.437	0.0274675
993.571	0.0275896
993.704	0.0274675
993.838	0.0278948
993.972	0.028261
994.106	0.0268571
994.24	0.0278948
994.374	0.0275285
994.508	0.0278948
994.642	0.0285052
994.776	0.0272844
994.91	0.0274065
995.044	0.0277727
995.178	0.0272844
995.312	0.0284441
995.446	0.0277117
995.58	0.028322
995.714	0.0271623
995.847	0.0274065
995.981	0.0269792
996.115	0.028261
996.249	0.0274065
996.383	0.0280168
996.517	0.0273454
996.651	0.0278948
996.785	0.0272844
996.919	0.0273454
997.053	0.0275896
997.187	0.0280779
997.321	0.0275285
997.455	0.0274675
997.589	0.0265519
997.722	0.0269792
997.856	0.0284441
997.99	0.0280168
998.124	0.0267961
998.258	0.0277117
998.392	0.0281389
998.526	0.0280779
998.66	0.0279558
998.794	0.0278948
998.928	0.0273454
999.062	0.0282
999.196	0.0275285
999.33	0.0276506
999.464	0.0279558
999.597	0.0278948
999.731	0.0277727
999.865	0.0284441
999.999	0.0280779
1000.13	0.0278337
1000.27	0.028322
1000.4	0.0274675
1000.53	0.0274675
1000.67	0.0276506
1000.8	0.0279558
1000.94	0.0278948
1001.07	0.0273454
1001.2	0.0271013
1001.34	0.0275285
1001.47	0.0275285
1001.61	0.0271623
1001.74	0.0277727
1001.87	0.0269181
1002.01	0.0279558
1002.14	0.0284441
1002.28	0.0277727
1002.41	0.0276506
1002.54	0.0281389
1002.68	0.0270402
1002.81	0.0274675
1002.95	0.028322
1003.08	0.0274065
1003.21	0.0278337
1003.35	0.0281389
1003.48	0.0272844
1003.61	0.0268571
1003.75	0.0274065
1003.88	0.0277727
1004.02	0.0286272
1004.15	0.0275896
1004.28	0.0277117
1004.42	0.0273454
1004.55	0.0276506
1004.69	0.0272233
1004.82	0.0272844
1004.95	0.0281389
1005.09	0.0278948
1005.22	0.0280168
1005.36	0.0275896
1005.49	0.0280168
1005.62	0.0274065
1005.76	0.0270402
1005.89	0.0269792
1006.03	0.028322
1006.16	0.0276506
1006.29	0.0274065
1006.43	0.0277727
1006.56	0.0281389
1006.69	0.0276506
1006.83	0.0274675
1006.96	0.0271013
1007.1	0.0278948
1007.23	0.0278337
1007.36	0.0278337
1007.5	0.0279558
1007.63	0.0276506
1007.77	0.0274065
1007.9	0.0274065
1008.03	0.0278337
1008.17	0.0271623
1008.3	0.0275896
1008.44	0.0272844
1008.57	0.0272233
1008.7	0.0279558
1008.84	0.0277727
1008.97	0.0274675
1009.1	0.0271623
1009.24	0.0282
1009.37	0.0275896
1009.51	0.0274065
1009.64	0.0272233
1009.77	0.0275896
1009.91	0.0268571
1010.04	0.0267961
1010.18	0.0280779
1010.31	0.0284441
1010.44	0.0267961
1010.58	0.0278948
1010.71	0.0269792
1010.85	0.0275285
1010.98	0.0288104
1011.11	0.026735
1011.25	0.0277117
1011.38	0.0285662
1011.51	0.0279558
1011.65	0.0280779
1011.78	0.0268571
1011.92	0.0271623
1012.05	0.0285662
1012.18	0.0278948
1012.32	0.0278948
1012.45	0.0280779
1012.59	0.0280779
1012.72	0.0272233
1012.85	0.0278337
1012.99	0.0273454
1013.12	0.0271623
1013.26	0.0279558
1013.39	0.0271623
1013.52	0.0274675
1013.66	0.0272233
1013.79	0.0279558
1013.92	0.028322
1014.06	0.0284441
1014.19	0.0277727
1014.33	0.0278337
1014.46	0.0269181
1014.59	0.0274065
1014.73	0.0278337
1014.86	0.0286272
1015	0.0275896
1015.13	0.0278337
1015.26	0.0271013
1015.4	0.028261
1015.53	0.0274065
1015.67	0.0274065
1015.8	0.0284441
1015.93	0.0276506
1016.07	0.0280168
1016.2	0.026674
1016.33	0.0270402
1016.47	0.028261
1016.6	0.0278337
1016.74	0.0277727
1016.87	0.0274675
1017	0.0271013
1017.14	0.0275285
1017.27	0.0270402
1017.41	0.0273454
1017.54	0.0277117
1017.67	0.0274065
1017.81	0.0278337
1017.94	0.0284441
1018.07	0.0274065
1018.21	0.0277727
1018.34	0.0276506
1018.48	0.0275285
1018.61	0.0277117
1018.74	0.0271623
1018.88	0.0275285
1019.01	0.0278337
1019.15	0.0276506
1019.28	0.0280779
1019.41	0.0276506
1019.55	0.0278948
1019.68	0.028261
1019.82	0.0272844
1019.95	0.0286883
1020.08	0.0272233
1020.22	0.0277117
1020.35	0.0271623
1020.48	0.0275285
1020.62	0.0265519
1020.75	0.0271013
1020.89	0.028322
1021.02	0.0269792
1021.15	0.0278948
1021.29	0.0272233
1021.42	0.0278948
1021.56	0.0275896
1021.69	0.0272844
1021.82	0.0280779
1021.96	0.0279558
1022.09	0.0270402
1022.22	0.0278948
1022.36	0.0268571
1022.49	0.028261
1022.63	0.0276506
1022.76	0.0280168
1022.89	0.0275285
1023.03	0.0277727
1023.16	0.0275285
1023.3	0.0271623
1023.43	0.0272233
1023.56	0.0278337
1023.7	0.0278948
1023.83	0.026613
1023.96	0.0272233
1024.1	0.0289324
1024.23	0.0275285
1024.37	0.0283831
1024.5	0.0278948
1024.63	0.0277727
1024.77	0.028261
1024.9	0.0280779
1025.04	0.0277117
1025.17	0.0274065
1025.3	0.0269792
1025.44	0.0278948
1025.57	0.0268571
1025.7	0.0280779
1025.84	0.0280779
1025.97	0.0271013
1026.11	0.0282
1026.24	0.0273454
1026.37	0.0272844
1026.51	0.0280168
1026.64	0.0278948
1026.78	0.0273454
1026.91	0.0273454
1027.04	0.0269792
1027.18	0.0270402
1027.31	0.0284441
1027.44	0.0268571
1027.58	0.0275896
1027.71	0.0280779
1027.85	0.0288714
1027.98	0.0280168
1028.11	0.0274065
1028.25	0.0275285
1028.38	0.0274065
1028.52	0.0273454
1028.65	0.0274675
1028.78	0.0277727
1028.92	0.0280168
1029.05	0.0279558
1029.18	0.0273454
1029.32	0.0276506
1029.45	0.0281389
1029.59	0.0275896
1029.72	0.0275285
1029.85	0.0277117
1029.99	0.0271013
1030.12	0.0283831
1030.26	0.0274065
1030.39	0.0274065
1030.52	0.0277117
1030.66	0.0280168
1030.79	0.0282
1030.92	0.0284441
1031.06	0.0267961
1031.19	0.0278337
1031.33	0.0280779
1031.46	0.0277117
1031.59	0.0277727
1031.73	0.0280168
1031.86	0.0277727
1031.99	0.0273454
1032.13	0.0278948
1032.26	0.0273454
1032.4	0.0275896
1032.53	0.0279558
1032.66	0.0280168
1032.8	0.0280779
1032.93	0.0270402
1033.07	0.0290545
1033.2	0.0278337
1033.33	0.0278948
1033.47	0.0277727
1033.6	0.0275896
1033.73	0.0278948
1033.87	0.0269792
1034	0.0274675
1034.14	0.0286883
1034.27	0.0274065
1034.4	0.0278948
1034.54	0.0278948
1034.67	0.0286883
1034.81	0.0274065
1034.94	0.0275285
1035.07	0.0274065
1035.21	0.0277727
1035.34	0.0280168
1035.47	0.0272844
1035.61	0.0274675
1035.74	0.0279558
1035.88	0.0276506
1036.01	0.0270402
1036.14	0.028322
1036.28	0.0283831
1036.41	0.0275896
1036.54	0.028261
1036.68	0.0262467
1036.81	0.0286883
1036.95	0.028261
1037.08	0.0270402
1037.21	0.0269181
1037.35	0.0286272
1037.48	0.0277117
1037.62	0.0279558
1037.75	0.0275896
1037.88	0.0278948
1038.02	0.0277117
1038.15	0.0274675
1038.28	0.0280779
1038.42	0.0277727
1038.55	0.0277117
1038.69	0.0275285
1038.82	0.026674
1038.95	0.0282
1039.09	0.0276506
1039.22	0.0280168
1039.35	0.0279558
1039.49	0.0284441
1039.62	0.026613
1039.76	0.0272844
1039.89	0.0278337
1040.02	0.028261
1040.16	0.0273454
1040.29	0.028261
1040.43	0.0271623
1040.56	0.0282
1040.69	0.0275285
1040.83	0.0277117
1040.96	0.0287493
1041.09	0.0281389
1041.23	0.0275285
1041.36	0.0268571
1041.5	0.0271623
1041.63	0.0278337
1041.76	0.0276506
1041.9	0.0275896
1042.03	0.0278337
1042.16	0.0275285
1042.3	0.0270402
1042.43	0.0277117
1042.57	0.0278948
1042.7	0.0289324
1042.83	0.0274065
1042.97	0.0269792
1043.1	0.0273454
1043.23	0.0283831
1043.37	0.0279558
1043.5	0.0281389
1043.64	0.0274675
1043.77	0.0276506
1043.9	0.0274065
1044.04	0.0274675
1044.17	0.0284441
1044.31	0.0278948
1044.44	0.0270402
1044.57	0.0284441
1044.71	0.0270402
1044.84	0.0277727
1044.97	0.0276506
1045.11	0.0272233
1045.24	0.0272844
1045.38	0.0281389
1045.51	0.0272233
1045.64	0.028322
1045.78	0.0273454
1045.91	0.0277727
1046.04	0.0272233
1046.18	0.0277117
1046.31	0.0276506
1046.45	0.0278948
1046.58	0.0270402
1046.71	0.0277117
1046.85	0.0275285
1046.98	0.0279558
1047.11	0.0271623
1047.25	0.0279558
1047.38	0.0281389
1047.52	0.0286883
1047.65	0.0279558
1047.78	0.0277727
1047.92	0.0280779
1048.05	0.026613
1048.18	0.0278337
1048.32	0.0272233
1048.45	0.0278948
1048.59	0.0272844
1048.72	0.0275285
1048.85	0.0272233
1048.99	0.0274065
1049.12	0.0275896
1049.25	0.0277117
1049.39	0.0271013
1049.52	0.0278948
1049.66	0.0278948
1049.79	0.0282
1049.92	0.0277117
1050.06	0.0284441
1050.19	0.0270402
1050.33	0.0272233
1050.46	0.0283831
1050.59	0.0274675
1050.73	0.0282
1050.86	0.028322
1050.99	0.0282
1051.13	0.028261
1051.26	0.0275896
1051.4	0.0277727
1051.53	0.0269792
1051.66	0.0273454
1051.8	0.026674
1051.93	0.0275896
1052.06	0.0274065
1052.2	0.0278948
1052.33	0.0278948
1052.47	0.0269181
1052.6	0.0271013
1052.73	0.026735
1052.87	0.0274065
1053	0.0280168
1053.13	0.0280168
1053.27	0.0275285
1053.4	0.0278948
1053.54	0.0271013
1053.67	0.0275896
1053.8	0.0282
1053.94	0.0275285
1054.07	0.0268571
1054.2	0.0276506
1054.34	0.0278337
1054.47	0.028261
1054.61	0.0278948
1054.74	0.0275896
1054.87	0.0277727
1055.01	0.0271623
1055.14	0.0277727
1055.27	0.0280168
1055.41	0.0269181
1055.54	0.028261
1055.68	0.0276506
1055.81	0.0279558
1055.94	0.0278948
1056.08	0.0269181
1056.21	0.0287493
1056.34	0.0279558
1056.48	0.026674
1056.61	0.0274065
1056.75	0.0275285
1056.88	0.0275896
1057.01	0.0277727
1057.15	0.0274675
1057.28	0.0294207
1057.41	0.0278948
1057.55	0.0271623
1057.68	0.028261
1057.82	0.0271013
1057.95	0.0275896
1058.08	0.0278948
1058.22	0.0278337
1058.35	0.0270402
1058.48	0.0270402
1058.62	0.0277727
1058.75	0.0274675
1058.89	0.0274675
1059.02	0.0275896
1059.15	0.0272233
1059.29	0.0276506
1059.42	0.0279558
1059.55	0.0282
1059.69	0.0278337
1059.82	0.0279558
1059.96	0.0273454
1060.09	0.0277117
1060.22	0.0278948
1060.36	0.0278337
1060.49	0.0271623
1060.62	0.0281389
1060.76	0.0274065
1060.89	0.0275896
1061.03	0.0278948
1061.16	0.0280168
1061.29	0.0273454
1061.43	0.0278337
1061.56	0.0271623
1061.69	0.0278948
1061.83	0.0280168
1061.96	0.0281389
1062.1	0.0284441
1062.23	0.0271623
1062.36	0.0267961
1062.5	0.0281389
1062.63	0.0272844
1062.76	0.0275896
1062.9	0.0274675
1063.03	0.0275285
1063.17	0.0276506
1063.3	0.0277117
1063.43	0.0282
1063.57	0.0280779
1063.7	0.0278948
1063.83	0.0281389
1063.97	0.0278337
1064.1	0.0277727
1064.23	0.0280168
1064.37	0.028322
1064.5	0.0279558
1064.64	0.028322
1064.77	0.0275896
1064.9	0.0275285
1065.04	0.0274675
1065.17	0.0278948
1065.3	0.0274065
1065.44	0.0275896
1065.57	0.0276506
1065.71	0.0277727
1065.84	0.0275896
1065.97	0.0278948
1066.11	0.0272844
1066.24	0.0275285
1066.37	0.0275285
1066.51	0.028261
1066.64	0.0274675
1066.78	0.0275896
1066.91	0.0286883
1067.04	0.0272233
1067.18	0.0273454
1067.31	0.0281389
1067.44	0.0274065
1067.58	0.0280779
1067.71	0.0272233
1067.85	0.0281389
1067.98	0.0267961
1068.11	0.0275896
1068.25	0.0283831
1068.38	0.0280168
1068.51	0.0267961
1068.65	0.0274065
1068.78	0.0279558
1068.92	0.0278337
1069.05	0.0276506
1069.18	0.028322
1069.32	0.0278337
1069.45	0.0277117
1069.58	0.0273454
1069.72	0.0275285
1069.85	0.0272233
1069.98	0.0270402
1070.12	0.0283831
1070.25	0.0280168
1070.39	0.0280779
1070.52	0.0280779
1070.65	0.0275896
1070.79	0.0280168
1070.92	0.0271623
1071.05	0.0277727
1071.19	0.028322
1071.32	0.0274675
1071.46	0.0263688
1071.59	0.0282
1071.72	0.0274675
1071.86	0.0270402
1071.99	0.0274675
1072.12	0.0269181
1072.26	0.028322
1072.39	0.0286272
1072.53	0.0282
1072.66	0.0275896
1072.79	0.0271013
1072.93	0.0280779
1073.06	0.0282
1073.19	0.0275896
1073.33	0.0277727
1073.46	0.0281389
1073.59	0.0286272
1073.73	0.0277727
1073.86	0.0273454
1074	0.0275285
1074.13	0.0278337
1074.26	0.0275896
1074.4	0.0264298
1074.53	0.0281389
1074.66	0.0269792
1074.8	0.0274675
1074.93	0.0267961
1075.07	0.0276506
1075.2	0.0275896
1075.33	0.0269792
1075.47	0.0277117
1075.6	0.0272844
1075.73	0.0279558
1075.87	0.0269792
1076	0.0284441
1076.14	0.0274065
1076.27	0.0272844
1076.4	0.0269792
1076.54	0.0275896
1076.67	0.0275896
1076.8	0.0277117
1076.94	0.0278948
1077.07	0.028261
1077.2	0.0284441
1077.34	0.0269181
1077.47	0.0269181
1077.61	0.0272844
1077.74	0.0280779
1077.87	0.0283831
1078.01	0.0273454
1078.14	0.0273454
1078.27	0.0277117
1078.41	0.0272233
1078.54	0.028261
1078.68	0.028322
1078.81	0.0272844
1078.94	0.0286272
1079.08	0.0285662
1079.21	0.0267961
1079.34	0.0276506
1079.48	0.0278337
1079.61	0.0271623
1079.74	0.026613
1079.88	0.0272233
1080.01	0.0274065
1080.15	0.0280779
1080.28	0.0274675
1080.41	0.0273454
1080.55	0.0271623
1080.68	0.0283831
1080.81	0.0277117
1080.95	0.0273454
1081.08	0.0276506
1081.22	0.0274065
1081.35	0.0283831
1081.48	0.0272233
1081.62	0.0274675
1081.75	0.0278948
1081.88	0.0277117
1082.02	0.0273454
1082.15	0.0269792
1082.28	0.0276506
1082.42	0.0279558
1082.55	0.0274675
1082.69	0.0283831
1082.82	0.0274065
1082.95	0.0277727
1083.09	0.0282
1083.22	0.0281389
1083.35	0.0275285
1083.49	0.0277727
1083.62	0.0277117
1083.75	0.0271013
1083.89	0.0274065
1084.02	0.0279558
1084.16	0.0277727
1084.29	0.0275896
1084.42	0.0268571
1084.56	0.0274065
1084.69	0.0269181
1084.82	0.0281389
1084.96	0.0274065
1085.09	0.028322
1085.23	0.0270402
1085.36	0.0274675
1085.49	0.0277117
1085.63	0.0273454
1085.76	0.028261
1085.89	0.0274065
1086.03	0.0278948
1086.16	0.0278948
1086.29	0.0279558
1086.43	0.0272233
1086.56	0.0272233
1086.7	0.0269181
1086.83	0.0276506
1086.96	0.0272844
1087.1	0.0276506
1087.23	0.0282
1087.36	0.0284441
1087.5	0.0277727
1087.63	0.0272233
1087.76	0.0277117
1087.9	0.0277117
1088.03	0.0271623
1088.17	0.0272233
1088.3	0.0277727
1088.43	0.0278948
1088.57	0.0272844
1088.7	0.0279558
1088.83	0.0280779
1088.97	0.0286883
1089.1	0.0277117
1089.24	0.0274675
1089.37	0.0285662
1089.5	0.0276506
1089.64	0.0271623
1089.77	0.028322
1089.9	0.0273454
1090.04	0.0280168
1090.17	0.026674
1090.3	0.028322
1090.44	0.0275285
1090.57	0.0275896
1090.71	0.0276506
1090.84	0.0278337
1090.97	0.0279558
1091.11	0.0274675
1091.24	0.0274065
1091.37	0.0286883
1091.51	0.0278337
1091.64	0.0278948
1091.77	0.0283831
1091.91	0.0278948
1092.04	0.0271623
1092.18	0.0269181
1092.31	0.028261
1092.44	0.0280168
1092.58	0.0275285
1092.71	0.0275285
1092.84	0.0279558
1092.98	0.0279558
1093.11	0.0275285
1093.24	0.0283831
1093.38	0.0278948
1093.51	0.0273454
1093.65	0.0276506
1093.78	0.0281389
1093.91	0.0272844
1094.05	0.0272233
1094.18	0.0269792
1094.31	0.0278337
1094.45	0.0274065
1094.58	0.0272233
1094.71	0.0274675
1094.85	0.0280168
1094.98	0.0273454
1095.12	0.0278948
1095.25	0.0285052
1095.38	0.0273454
1095.52	0.0274675
1095.65	0.0274675
1095.78	0.0278948
1095.92	0.0285052
1096.05	0.0277117
1096.18	0.0285052
1096.32	0.0269181
1096.45	0.0280168
1096.59	0.0274675
1096.72	0.0276506
1096.85	0.0275896
1096.99	0.0274675
1097.12	0.028322
1097.25	0.0271623
1097.39	0.026735
1097.52	0.0274065
1097.65	0.0275896
1097.79	0.0277117
1097.92	0.0285662
1098.06	0.0271623
1098.19	0.0278948
1098.32	0.0274065
1098.46	0.0271013
1098.59	0.0286272
1098.72	0.0278337
1098.86	0.0278948
1098.99	0.0281389
1099.12	0.0271623
1099.26	0.0278337
1099.39	0.028322
1099.53	0.0278337
1099.66	0.0280168
1099.79	0.0269792
1099.93	0.0283831
1100.06	0.0278337
1100.19	0.0272233
1100.33	0.0275896
1100.46	0.0274675
1100.59	0.0277117
1100.73	0.0271013
1100.86	0.0276506
1100.99	0.0280168
1101.13	0.0279558
1101.26	0.0286883
1101.4	0.0267961
1101.53	0.0275896
1101.66	0.0279558
1101.8	0.0286272
1101.93	0.0282
1102.06	0.0281389
1102.2	0.0275896
1102.33	0.0278337
1102.46	0.0274675
1102.6	0.0277727
1102.73	0.0277727
1102.87	0.0271013
1103	0.0273454
1103.13	0.0281389
1103.27	0.0277727
1103.4	0.0271013
1103.53	0.0270402
1103.67	0.0274065
1103.8	0.0278948
1103.93	0.0277117
1104.07	0.0274065
1104.2	0.0274675
1104.34	0.0286272
1104.47	0.0275285
1104.6	0.0275285
1104.74	0.0277117
1104.87	0.0272844
1105	0.0276506
1105.14	0.0273454
1105.27	0.0274065
1105.4	0.0274675
1105.54	0.0275896
1105.67	0.0277727
1105.8	0.0279558
1105.94	0.0275285
1106.07	0.028322
1106.21	0.0277727
1106.34	0.0279558
1106.47	0.0278337
1106.61	0.0280168
1106.74	0.0280168
1106.87	0.0279558
1107.01	0.0284441
1107.14	0.0277727
1107.27	0.0274675
1107.41	0.0270402
1107.54	0.0274675

