Source: Spectrum Viewer

Chart: Pulse Spectrum

Series: 
Wavelength (nm)	S (a.u.)
617.638	0.0267961
617.773	0.0280168
617.908	0.0277117
618.043	0.0269792
618.178	0.0275896
618.313	0.0277117
618.448	0.0270402
618.583	0.0279558
618.718	0.0280779
618.853	0.0272844
618.988	0.0274675
619.123	0.0273454
619.258	0.0277727
619.394	0.0271623
619.529	0.0277117
619.664	0.0275896
619.799	0.0280779
619.934	0.0275285
620.069	0.0280779
620.204	0.0275896
620.339	0.0275896
620.474	0.0269792
620.609	0.0272233
620.744	0.0278948
620.879	0.0279558
621.014	0.0276506
621.149	0.0274065
621.284	0.0277117
621.419	0.0274675
621.554	0.0278948
621.689	0.0279558
621.825	0.0269792
621.96	0.0272844
622.095	0.0271623
622.23	0.0271013
622.365	0.0274065
622.5	0.0283831
622.635	0.0267961
622.77	0.0281389
622.905	0.0280168
623.04	0.0277117
623.175	0.0279558
623.31	0.0274065
623.445	0.0272233
623.58	0.0271623
623.715	0.0273454
623.85	0.0285052
623.985	0.0278948
624.12	0.0276506
624.255	0.0276506
624.39	0.0276506
624.525	0.0280168
624.661	0.0280779
624.796	0.0271623
624.931	0.0275896
625.066	0.0271623
625.201	0.0289324
625.336	0.0275285
625.471	0.0277117
625.606	0.0272844
625.741	0.0272844
625.876	0.0277117
626.011	0.0268571
626.146	0.0271013
626.281	0.0279558
626.416	0.0272844
626.551	0.0280168
626.686	0.0282
626.821	0.0277117
626.956	0.0270402
627.091	0.0273454
627.226	0.0277117
627.361	0.0275896
627.496	0.026674
627.631	0.0277117
627.766	0.028261
627.901	0.0278948
628.036	0.0277117
628.171	0.0272844
628.307	0.0283831
628.442	0.0279558
628.577	0.0269181
628.712	0.0278948
628.847	0.0285662
628.982	0.0271623
629.117	0.028261
629.252	0.0267961
629.387	0.0279558
629.522	0.0272233
629.657	0.0272844
629.792	0.0286883
629.927	0.0269792
630.062	0.0271623
630.197	0.0270402
630.332	0.0272233
630.467	0.0282
630.602	0.0272233
630.737	0.0277727
630.872	0.0280779
631.007	0.0277117
631.142	0.0272844
631.277	0.0277727
631.412	0.0281389
631.547	0.0274065
631.682	0.0270402
631.817	0.0277727
631.952	0.0280168
632.087	0.028261
632.222	0.0277727
632.357	0.0284441
632.492	0.0277117
632.627	0.0275285
632.762	0.0277727
632.897	0.0268571
633.032	0.0270402
633.167	0.0283831
633.302	0.026735
633.437	0.026613
633.572	0.0277727
633.707	0.0272844
633.842	0.0270402
633.978	0.0274675
634.113	0.0280779
634.248	0.0275285
634.383	0.0277117
634.518	0.0276506
634.653	0.0275285
634.788	0.028261
634.923	0.0282
635.058	0.0281389
635.193	0.0278337
635.328	0.0276506
635.463	0.0277727
635.598	0.0275896
635.733	0.0272844
635.868	0.0271013
636.003	0.0275896
636.138	0.0280779
636.273	0.0267961
636.408	0.0265519
636.543	0.0272844
636.678	0.0277727
636.813	0.0278337
636.948	0.0274675
637.083	0.0270402
637.218	0.0273454
637.353	0.0276506
637.488	0.0275896
637.623	0.0278337
637.758	0.0274065
637.893	0.0269181
638.028	0.0280779
638.163	0.028322
638.298	0.0281389
638.433	0.0278337
638.568	0.028322
638.703	0.0275896
638.838	0.0291766
638.973	0.0274065
639.108	0.0275285
639.243	0.0276506
639.378	0.0265519
639.513	0.028261
639.648	0.0276506
639.783	0.0280779
639.918	0.0271013
640.053	0.0280168
640.188	0.0272844
640.323	0.0275896
640.458	0.0283831
640.593	0.0275896
640.728	0.028261
640.863	0.0285052
640.998	0.0277117
641.133	0.0271623
641.268	0.0277117
641.403	0.0281389
641.538	0.0274065
641.673	0.0280168
641.808	0.0275285
641.943	0.028322
642.078	0.0278948
642.213	0.0274065
642.348	0.0267961
642.483	0.0279558
642.618	0.0280168
642.753	0.0277727
642.888	0.0277727
643.023	0.028261
643.158	0.028261
643.293	0.0282
643.428	0.0271013
643.563	0.0275285
643.698	0.0278337
643.833	0.0280779
643.968	0.028261
644.103	0.0279558
644.237	0.0280168
644.372	0.0272844
644.507	0.0274675
644.642	0.0277117
644.777	0.0268571
644.912	0.0275285
645.047	0.0273454
645.182	0.0276506
645.317	0.0276506
645.452	0.0271013
645.587	0.0280168
645.722	0.0279558
645.857	0.0274065
645.992	0.0278337
646.127	0.0272844
646.262	0.028322
646.397	0.0271013
646.532	0.0277117
646.667	0.0275285
646.802	0.0270402
646.937	0.0274675
647.072	0.0278948
647.207	0.0276506
647.342	0.0274675
647.477	0.026735
647.612	0.0272844
647.747	0.028261
647.882	0.0282
648.017	0.0285052
648.152	0.028322
648.287	0.0285662
648.422	0.0272233
648.557	0.026735
648.692	0.0280779
648.827	0.0278948
648.962	0.0277727
649.097	0.0278337
649.232	0.0275285
649.367	0.0273454
649.502	0.0276506
649.637	0.0281389
649.772	0.0280168
649.906	0.0270402
650.041	0.028322
650.176	0.0272844
650.311	0.0285052
650.446	0.0275896
650.581	0.0274675
650.716	0.0279558
650.851	0.028261
650.986	0.0273454
651.121	0.0278337
651.256	0.028322
651.391	0.0277727
651.526	0.028322
651.661	0.0276506
651.796	0.0272233
651.931	0.0274675
652.066	0.0274675
652.201	0.0277727
652.336	0.0280168
652.471	0.0275285
652.606	0.0269181
652.741	0.0272844
652.876	0.0272844
653.011	0.0278948
653.146	0.0274065
653.281	0.0279558
653.415	0.0277117
653.55	0.0278337
653.685	0.0273454
653.82	0.0272233
653.955	0.0284441
654.09	0.0278337
654.225	0.026674
654.36	0.0280168
654.495	0.0279558
654.63	0.0275896
654.765	0.0272233
654.9	0.0274065
655.035	0.0274065
655.17	0.0268571
655.305	0.0275896
655.44	0.0274675
655.575	0.0276506
655.71	0.0277117
655.845	0.0273454
655.98	0.0277117
656.115	0.0272844
656.25	0.0280779
656.384	0.0276506
656.519	0.0278948
656.654	0.0269792
656.789	0.0278337
656.924	0.0277727
657.059	0.0283831
657.194	0.0277727
657.329	0.0274065
657.464	0.0278948
657.599	0.0278337
657.734	0.0267961
657.869	0.0277727
658.004	0.0272233
658.139	0.0282
658.274	0.0280779
658.409	0.0279558
658.544	0.0280168
658.679	0.0274675
658.813	0.0274065
658.948	0.0277727
659.083	0.0284441
659.218	0.028261
659.353	0.0277117
659.488	0.028322
659.623	0.0275896
659.758	0.0279558
659.893	0.0281389
660.028	0.0281389
660.163	0.0277727
660.298	0.0274675
660.433	0.0277117
660.568	0.0280168
660.703	0.0276506
660.838	0.0277117
660.972	0.0278948
661.107	0.0278337
661.242	0.0279558
661.377	0.028261
661.512	0.0275285
661.647	0.0280168
661.782	0.0275285
661.917	0.0273454
662.052	0.0272844
662.187	0.0281389
662.322	0.028322
662.457	0.0280168
662.592	0.0277727
662.727	0.0278337
662.862	0.0273454
662.996	0.028322
663.131	0.0282
663.266	0.0277117
663.401	0.0272233
663.536	0.0279558
663.671	0.0274675
663.806	0.0272844
663.941	0.0279558
664.076	0.026735
664.211	0.0270402
664.346	0.0274065
664.481	0.0281389
664.616	0.0281389
664.75	0.0277117
664.885	0.0274065
665.02	0.0280779
665.155	0.028322
665.29	0.0269792
665.425	0.0275285
665.56	0.0278337
665.695	0.0280168
665.83	0.0274065
665.965	0.0278337
666.1	0.0274065
666.235	0.0275896
666.37	0.0278337
666.504	0.0284441
666.639	0.0281389
666.774	0.0282
666.909	0.0276506
667.044	0.0281389
667.179	0.0272844
667.314	0.0279558
667.449	0.0286272
667.584	0.0282
667.719	0.0277727
667.854	0.0274675
667.989	0.0274065
668.123	0.0278948
668.258	0.0289935
668.393	0.0273454
668.528	0.0275285
668.663	0.026613
668.798	0.0277727
668.933	0.0272233
669.068	0.0275285
669.203	0.026674
669.338	0.0282
669.473	0.0272844
669.607	0.0285052
669.742	0.0275896
669.877	0.0284441
670.012	0.026613
670.147	0.0275285
670.282	0.0275896
670.417	0.0277117
670.552	0.0278948
670.687	0.0277117
670.822	0.0275285
670.957	0.0272844
671.091	0.0275285
671.226	0.0277727
671.361	0.0271623
671.496	0.0280779
671.631	0.0273454
671.766	0.0275285
671.901	0.0286883
672.036	0.0278337
672.171	0.0272844
672.306	0.0275896
672.44	0.0272844
672.575	0.0278948
672.71	0.0281389
672.845	0.0277117
672.98	0.0283831
673.115	0.0277727
673.25	0.0280168
673.385	0.0271623
673.52	0.0275285
673.655	0.0279558
673.789	0.028261
673.924	0.028261
674.059	0.0275285
674.194	0.0272233
674.329	0.026674
674.464	0.0274065
674.599	0.0272233
674.734	0.0277117
674.869	0.0281389
675.003	0.0274675
675.138	0.0280168
675.273	0.0271013
675.408	0.0276506
675.543	0.0274675
675.678	0.0273454
675.813	0.0274675
675.948	0.0280168
676.083	0.0284441
676.217	0.0274675
676.352	0.0273454
676.487	0.0277727
676.622	0.0274675
676.757	0.0277727
676.892	0.0274675
677.027	0.0277117
677.162	0.0280779
677.297	0.0277117
677.431	0.0276506
677.566	0.0277727
677.701	0.0280779
677.836	0.0272844
677.971	0.0275285
678.106	0.0284441
678.241	0.0280168
678.376	0.0283831
678.511	0.0274675
678.645	0.0270402
678.78	0.0270402
678.915	0.0279558
679.05	0.0279558
679.185	0.0288104
679.32	0.0280779
679.455	0.0271013
679.59	0.0274675
679.724	0.0285052
679.859	0.0284441
679.994	0.026674
680.129	0.0281389
680.264	0.026613
680.399	0.0278948
680.534	0.0277727
680.669	0.0274675
680.803	0.0277727
680.938	0.0272233
681.073	0.0278337
681.208	0.0270402
681.343	0.0275285
681.478	0.0275285
681.613	0.0279558
681.748	0.0278337
681.882	0.0282
682.017	0.0276506
682.152	0.0276506
682.287	0.0273454
682.422	0.0276506
682.557	0.0272233
682.692	0.0277727
682.827	0.0277117
682.961	0.0275285
683.096	0.0268571
683.231	0.0277727
683.366	0.0278337
683.501	0.0281389
683.636	0.0279558
683.771	0.0270402
683.906	0.0280779
684.04	0.0281389
684.175	0.0277727
684.31	0.0277727
684.445	0.0279558
684.58	0.0279558
684.715	0.0284441
684.85	0.0280779
684.984	0.0275285
685.119	0.0287493
685.254	0.0283831
685.389	0.0270402
685.524	0.026674
685.659	0.0276506
685.794	0.0277117
685.928	0.0280168
686.063	0.0280779
686.198	0.0269181
686.333	0.0264909
686.468	0.0272844
686.603	0.0275285
686.738	0.0277117
686.872	0.0282
687.007	0.0271623
687.142	0.028322
687.277	0.0284441
687.412	0.0278948
687.547	0.0272844
687.682	0.0269181
687.816	0.0275285
687.951	0.0277727
688.086	0.0272844
688.221	0.0280168
688.356	0.0277117
688.491	0.0277117
688.626	0.0277117
688.76	0.0280168
688.895	0.0275285
689.03	0.0281389
689.165	0.0282
689.3	0.0274065
689.435	0.0278948
689.57	0.028322
689.704	0.0271013
689.839	0.0275896
689.974	0.0283831
690.109	0.0278337
690.244	0.0279558
690.379	0.0279558
690.513	0.0275896
690.648	0.0274065
690.783	0.0276506
690.918	0.0273454
691.053	0.0282
691.188	0.0276506
691.323	0.0274065
691.457	0.0271623
691.592	0.0277117
691.727	0.0270402
691.862	0.0281389
691.997	0.0269792
692.132	0.0271623
692.266	0.0270402
692.401	0.0281389
692.536	0.0274065
692.671	0.0275285
692.806	0.0275896
692.941	0.0280168
693.075	0.0278337
693.21	0.0277117
693.345	0.0277727
693.48	0.0278948
693.615	0.0270402
693.75	0.0274675
693.885	0.0277727
694.019	0.0273454
694.154	0.0276506
694.289	0.0283831
694.424	0.0276506
694.559	0.0278948
694.694	0.0277727
694.828	0.0277117
694.963	0.0285052
695.098	0.0273454
695.233	0.0270402
695.368	0.0278948
695.503	0.0277727
695.637	0.0278337
695.772	0.0275896
695.907	0.0280779
696.042	0.0276506
696.177	0.0277117
696.312	0.0273454
696.446	0.028322
696.581	0.0280168
696.716	0.0285662
696.851	0.0275285
696.986	0.0275896
697.12	0.026674
697.255	0.0280168
697.39	0.0280779
697.525	0.0277117
697.66	0.0279558
697.795	0.0275896
697.929	0.0271623
698.064	0.0272233
698.199	0.0282
698.334	0.0274675
698.469	0.0273454
698.604	0.0276506
698.738	0.0277727
698.873	0.0273454
699.008	0.028261
699.143	0.0274675
699.278	0.0277117
699.412	0.0272233
699.547	0.0277727
699.682	0.0272844
699.817	0.0267961
699.952	0.0275285
700.087	0.0283831
700.221	0.0277117
700.356	0.0277117
700.491	0.0272844
700.626	0.0277117
700.761	0.0280779
700.895	0.0275896
701.03	0.0274065
701.165	0.0272844
701.3	0.0272844
701.435	0.0271623
701.57	0.0273454
701.704	0.0279558
701.839	0.0277727
701.974	0.0275285
702.109	0.0275285
702.244	0.0278337
702.378	0.0280779
702.513	0.0270402
702.648	0.0270402
702.783	0.0275285
702.918	0.0274065
703.052	0.0267961
703.187	0.0271623
703.322	0.0272844
703.457	0.0275285
703.592	0.0289324
703.727	0.0272233
703.861	0.0278337
703.996	0.0272844
704.131	0.0272844
704.266	0.0273454
704.401	0.0274065
704.535	0.0275285
704.67	0.0276506
704.805	0.0272233
704.94	0.0283831
705.075	0.0280779
705.209	0.0272844
705.344	0.0275285
705.479	0.0280168
705.614	0.0279558
705.749	0.0277117
705.883	0.0272233
706.018	0.0272233
706.153	0.0275285
706.288	0.0278337
706.423	0.0273454
706.557	0.0271013
706.692	0.0279558
706.827	0.0277727
706.962	0.0271013
707.097	0.0277727
707.231	0.0268571
707.366	0.0279558
707.501	0.0280779
707.636	0.0271013
707.771	0.0273454
707.905	0.0269792
708.04	0.0281389
708.175	0.0272844
708.31	0.0282
708.445	0.028261
708.579	0.0274675
708.714	0.0280168
708.849	0.0280168
708.984	0.0282
709.118	0.0274675
709.253	0.0275896
709.388	0.0276506
709.523	0.0273454
709.658	0.0279558
709.792	0.0275285
709.927	0.0277727
710.062	0.0284441
710.197	0.0272233
710.332	0.0290545
710.466	0.0273454
710.601	0.0272844
710.736	0.0271013
710.871	0.0271623
711.006	0.0276506
711.14	0.0271013
711.275	0.0278948
711.41	0.0292376
711.545	0.0275285
711.679	0.0285052
711.814	0.0281389
711.949	0.0280779
712.084	0.0276506
712.219	0.0274065
712.353	0.0275896
712.488	0.0282
712.623	0.0279558
712.758	0.0271013
712.892	0.0267961
713.027	0.0278948
713.162	0.0273454
713.297	0.0280779
713.432	0.0277727
713.566	0.0277117
713.701	0.0281389
713.836	0.0278337
713.971	0.0274065
714.105	0.0274675
714.24	0.0269181
714.375	0.0277727
714.51	0.0270402
714.645	0.0285052
714.779	0.0278337
714.914	0.0278337
715.049	0.0275896
715.184	0.0278948
715.318	0.0278948
715.453	0.0271623
715.588	0.0278337
715.723	0.0275896
715.858	0.0274065
715.992	0.0277727
716.127	0.0278948
716.262	0.0280168
716.397	0.0268571
716.531	0.026674
716.666	0.0279558
716.801	0.0271623
716.936	0.0275896
717.07	0.0280779
717.205	0.0281389
717.34	0.0281389
717.475	0.0283831
717.61	0.0280779
717.744	0.0278337
717.879	0.0285662
718.014	0.0268571
718.149	0.0272844
718.283	0.0278337
718.418	0.028261
718.553	0.0271623
718.688	0.0275285
718.822	0.0278337
718.957	0.0271623
719.092	0.0278948
719.227	0.0277727
719.361	0.0279558
719.496	0.0272233
719.631	0.0278337
719.766	0.0274065
719.9	0.0281389
720.035	0.0275285
720.17	0.028322
720.305	0.0284441
720.44	0.0278337
720.574	0.028261
720.709	0.0268571
720.844	0.0280168
720.979	0.0276506
721.113	0.0279558
721.248	0.0277727
721.383	0.0274675
721.518	0.026735
721.652	0.0275896
721.787	0.0278337
721.922	0.0271013
722.057	0.0280168
722.191	0.0273454
722.326	0.0277117
722.461	0.0274065
722.596	0.0277727
722.73	0.0277117
722.865	0.0278948
723	0.0271013
723.135	0.0279558
723.269	0.0272844
723.404	0.0285052
723.539	0.0277117
723.674	0.0285052
723.808	0.0276506
723.943	0.0276506
724.078	0.0274675
724.213	0.0280779
724.347	0.0282
724.482	0.0275896
724.617	0.0277727
724.752	0.0275896
724.886	0.0272844
725.021	0.0279558
725.156	0.0273454
725.291	0.0275896
725.425	0.0280168
725.56	0.0275896
725.695	0.0279558
725.829	0.0271623
725.964	0.0276506
726.099	0.0274065
726.234	0.0276506
726.368	0.0277727
726.503	0.0282
726.638	0.0283831
726.773	0.026674
726.907	0.0263078
727.042	0.0277727
727.177	0.0268571
727.312	0.0282
727.446	0.0272233
727.581	0.0278337
727.716	0.0274675
727.851	0.0273454
727.985	0.0276506
728.12	0.0274065
728.255	0.0286883
728.389	0.0270402
728.524	0.0272844
728.659	0.0269181
728.794	0.0281389
728.928	0.0274065
729.063	0.0281389
729.198	0.0286272
729.333	0.0271013
729.467	0.0268571
729.602	0.0285052
729.737	0.0275896
729.872	0.0272233
730.006	0.0279558
730.141	0.0280168
730.276	0.028261
730.41	0.0267961
730.545	0.0274675
730.68	0.0277727
730.815	0.0280168
730.949	0.0286883
731.084	0.0269792
731.219	0.0276506
731.354	0.0278948
731.488	0.0275285
731.623	0.0281389
731.758	0.0274675
731.892	0.0280168
732.027	0.0281389
732.162	0.0275896
732.297	0.0283831
732.431	0.0280168
732.566	0.0271013
732.701	0.0285662
732.835	0.0277727
732.97	0.0278948
733.105	0.0272233
733.24	0.0270402
733.374	0.0281389
733.509	0.0283831
733.644	0.0277727
733.779	0.0278337
733.913	0.0273454
734.048	0.0275285
734.183	0.0277117
734.317	0.0275896
734.452	0.0278337
734.587	0.0274675
734.722	0.028322
734.856	0.0278337
734.991	0.0280779
735.126	0.0275896
735.26	0.0282
735.395	0.0278948
735.53	0.0277117
735.665	0.0283831
735.799	0.0281389
735.934	0.0273454
736.069	0.0278948
736.203	0.0272233
736.338	0.0285052
736.473	0.0271623
736.607	0.0282
736.742	0.0274675
736.877	0.0282
737.012	0.0277727
737.146	0.0275285
737.281	0.0277727
737.416	0.0281389
737.55	0.0275285
737.685	0.0278337
737.82	0.0276506
737.955	0.0271013
738.089	0.0277117
738.224	0.0282
738.359	0.0275285
738.493	0.0276506
738.628	0.0278337
738.763	0.0282
738.897	0.0275896
739.032	0.0283831
739.167	0.0277117
739.302	0.0276506
739.436	0.0279558
739.571	0.0282
739.706	0.0277727
739.84	0.0269181
739.975	0.0270402
740.11	0.0285662
740.244	0.0276506
740.379	0.0273454
740.514	0.026735
740.649	0.0269792
740.783	0.0275285
740.918	0.0264909
741.053	0.0274675
741.187	0.0275896
741.322	0.0275896
741.457	0.0274675
741.591	0.028261
741.726	0.0279558
741.861	0.0272233
741.996	0.0274675
742.13	0.026735
742.265	0.0276506
742.4	0.0280168
742.534	0.0276506
742.669	0.0271623
742.804	0.0274065
742.938	0.0275896
743.073	0.0278948
743.208	0.0280779
743.342	0.0280779
743.477	0.0278948
743.612	0.0269792
743.747	0.0278948
743.881	0.0278337
744.016	0.028261
744.151	0.0275896
744.285	0.0281389
744.42	0.0281389
744.555	0.0274675
744.689	0.0283831
744.824	0.028322
744.959	0.0281389
745.093	0.0275285
745.228	0.0282
745.363	0.0272233
745.497	0.0272844
745.632	0.0271623
745.767	0.0270402
745.901	0.0271013
746.036	0.0275896
746.171	0.0278337
746.305	0.0285662
746.44	0.0278337
746.575	0.0278948
746.71	0.0279558
746.844	0.0278948
746.979	0.0279558
747.114	0.0271623
747.248	0.0280168
747.383	0.0297259
747.518	0.0281389
747.652	0.0276506
747.787	0.0275285
747.922	0.0280779
748.056	0.0274675
748.191	0.0277727
748.326	0.0278948
748.46	0.0275285
748.595	0.0282
748.73	0.0285662
748.864	0.0272844
748.999	0.0274675
749.134	0.0280168
749.268	0.0280168
749.403	0.0275896
749.538	0.0281389
749.672	0.0271623
749.807	0.0272233
749.942	0.0278948
750.076	0.0277727
750.211	0.0276506
750.346	0.028322
750.48	0.0275285
750.615	0.0276506
750.75	0.0288104
750.884	0.0285052
751.019	0.0280779
751.154	0.0272844
751.288	0.0272844
751.423	0.0270402
751.558	0.0282
751.692	0.0274065
751.827	0.028261
751.962	0.0278337
752.096	0.0276506
752.231	0.0272844
752.366	0.0277117
752.5	0.0274675
752.635	0.028322
752.77	0.0274065
752.904	0.0277117
753.039	0.0278948
753.174	0.0276506
753.308	0.0278948
753.443	0.0271013
753.578	0.0284441
753.712	0.0268571
753.847	0.0280779
753.982	0.0275285
754.116	0.0272844
754.251	0.0275285
754.386	0.0272844
754.52	0.0274065
754.655	0.0280779
754.79	0.028261
754.924	0.0283831
755.059	0.0270402
755.194	0.0269792
755.328	0.0280779
755.463	0.0278337
755.597	0.0271623
755.732	0.0275896
755.867	0.0273454
756.001	0.0281389
756.136	0.0265519
756.271	0.0271623
756.405	0.0280168
756.54	0.028322
756.675	0.0282
756.809	0.0272233
756.944	0.0281389
757.079	0.0274675
757.213	0.0271013
757.348	0.0278337
757.483	0.0278948
757.617	0.0275285
757.752	0.0267961
757.887	0.0276506
758.021	0.0276506
758.156	0.0289935
758.29	0.0272844
758.425	0.0285052
758.56	0.0275896
758.694	0.0273454
758.829	0.0278337
758.964	0.0276506
759.098	0.0277727
759.233	0.0276506
759.368	0.0274065
759.502	0.0284441
759.637	0.0278337
759.772	0.0277117
759.906	0.0275896
760.041	0.0283831
760.175	0.028261
760.31	0.0270402
760.445	0.0277727
760.579	0.0271623
760.714	0.0261857
760.849	0.0277117
760.983	0.0277727
761.118	0.0280168
761.253	0.0281389
761.387	0.0282
761.522	0.0271623
761.656	0.0277117
761.791	0.028261
761.926	0.0274065
762.06	0.0277117
762.195	0.0268571
762.33	0.0270402
762.464	0.0278337
762.599	0.026613
762.733	0.0275896
762.868	0.0278337
763.003	0.0274675
763.137	0.0268571
763.272	0.0275896
763.407	0.0271623
763.541	0.0289935
763.676	0.0272233
763.811	0.0279558
763.945	0.0275285
764.08	0.0275285
764.214	0.0285052
764.349	0.026613
764.484	0.0280779
764.618	0.0274675
764.753	0.0269792
764.888	0.0272844
765.022	0.0274675
765.157	0.0275285
765.291	0.0275285
765.426	0.0280168
765.561	0.0274065
765.695	0.0278337
765.83	0.0276506
765.965	0.0272844
766.099	0.0280779
766.234	0.0269792
766.368	0.0274065
766.503	0.0275285
766.638	0.0277117
766.772	0.0280168
766.907	0.0275285
767.041	0.0272233
767.176	0.0283831
767.311	0.0273454
767.445	0.0280779
767.58	0.0277117
767.715	0.0277117
767.849	0.0274675
767.984	0.0286272
768.118	0.0274065
768.253	0.0286272
768.388	0.0281389
768.522	0.0274065
768.657	0.0271013
768.791	0.0277727
768.926	0.0270402
769.061	0.0273454
769.195	0.0275285
769.33	0.0280779
769.465	0.0281389
769.599	0.0273454
769.734	0.0277727
769.868	0.0278337
770.003	0.0282
770.138	0.0269792
770.272	0.0271013
770.407	0.0280168
770.541	0.028261
770.676	0.0280168
770.811	0.0280168
770.945	0.0273454
771.08	0.0277727
771.214	0.0275285
771.349	0.0272844
771.484	0.028261
771.618	0.0274065
771.753	0.0278948
771.887	0.0274675
772.022	0.0286883
772.157	0.0274675
772.291	0.0280168
772.426	0.0276506
772.56	0.0277117
772.695	0.0280168
772.83	0.0277727
772.964	0.0273454
773.099	0.0282
773.233	0.0280168
773.368	0.0272233
773.503	0.0272844
773.637	0.0283831
773.772	0.0280779
773.906	0.0280779
774.041	0.0284441
774.176	0.0274675
774.31	0.0265519
774.445	0.0272844
774.579	0.0272844
774.714	0.0280168
774.849	0.0273454
774.983	0.0279558
775.118	0.0279558
775.252	0.0279558
775.387	0.0274675
775.522	0.028261
775.656	0.0285662
775.791	0.0282
775.925	0.0285052
776.06	0.0277117
776.195	0.0278337
776.329	0.0278337
776.464	0.0276506
776.598	0.0272844
776.733	0.0282
776.868	0.0274065
777.002	0.0274675
777.137	0.0291155
777.271	0.0274675
777.406	0.0273454
777.54	0.0276506
777.675	0.0269792
777.81	0.0282
777.944	0.0274675
778.079	0.0276506
778.213	0.0287493
778.348	0.0267961
778.483	0.0277727
778.617	0.0285052
778.752	0.0274065
778.886	0.0274675
779.021	0.0278337
779.155	0.0277117
779.29	0.0276506
779.425	0.0278948
779.559	0.0281389
779.694	0.0281389
779.828	0.0273454
779.963	0.0276506
780.098	0.0282
780.232	0.0277727
780.367	0.0274065
780.501	0.0280779
780.636	0.0273454
780.77	0.0285052
780.905	0.0275896
781.04	0.0280779
781.174	0.0275285
781.309	0.0274675
781.443	0.0272844
781.578	0.0278948
781.712	0.0280779
781.847	0.0268571
781.982	0.0279558
782.116	0.0275896
782.251	0.0271623
782.385	0.026674
782.52	0.0270402
782.654	0.0283831
782.789	0.0269792
782.924	0.0276506
783.058	0.0277727
783.193	0.0275285
783.327	0.0278948
783.462	0.0278948
783.596	0.0280779
783.731	0.0285662
783.866	0.0279558
784	0.0274065
784.135	0.0272844
784.269	0.0274675
784.404	0.0280779
784.538	0.0277117
784.673	0.0283831
784.808	0.0282
784.942	0.0286883
785.077	0.0276506
785.211	0.0271623
785.346	0.0273454
785.48	0.0279558
785.615	0.0274065
785.75	0.0282
785.884	0.0277727
786.019	0.0272844
786.153	0.0271013
786.288	0.0282
786.422	0.0274065
786.557	0.0271013
786.691	0.0278948
786.826	0.0285052
786.961	0.0274065
787.095	0.028261
787.23	0.0278337
787.364	0.0280168
787.499	0.0278948
787.633	0.0274065
787.768	0.0278948
787.902	0.0273454
788.037	0.0276506
788.172	0.0271013
788.306	0.0272233
788.441	0.0274065
788.575	0.0281389
788.71	0.0271623
788.844	0.0280779
788.979	0.0273454
789.113	0.0274065
789.248	0.0283831
789.383	0.0280168
789.517	0.0276506
789.652	0.0280168
789.786	0.0279558
789.921	0.0286883
790.055	0.0272233
790.19	0.0283831
790.324	0.0274675
790.459	0.0275896
790.594	0.0272844
790.728	0.0278337
790.863	0.0273454
790.997	0.0272844
791.132	0.0271623
791.266	0.0282
791.401	0.0278948
791.535	0.0277727
791.67	0.0281389
791.804	0.0276506
791.939	0.0280168
792.074	0.0275285
792.208	0.0273454
792.343	0.0285662
792.477	0.0288104
792.612	0.0275896
792.746	0.028322
792.881	0.0288104
793.015	0.0271013
793.15	0.0278337
793.284	0.0280779
793.419	0.0281389
793.553	0.0282
793.688	0.0278337
793.823	0.0275896
793.957	0.0273454
794.092	0.028261
794.226	0.0282
794.361	0.0272844
794.495	0.0271013
794.63	0.028261
794.764	0.0275285
794.899	0.0274675
795.033	0.0280779
795.168	0.0278948
795.302	0.0280168
795.437	0.0280168
795.572	0.028322
795.706	0.0275896
795.841	0.0275896
795.975	0.0277117
796.11	0.028322
796.244	0.0280779
796.379	0.0286272
796.513	0.0280779
796.648	0.0281389
796.782	0.0277727
796.917	0.0284441
797.051	0.0278948
797.186	0.0279558
797.32	0.0276506
797.455	0.028322
797.589	0.0277117
797.724	0.0280168
797.859	0.0284441
797.993	0.028261
798.128	0.0277727
798.262	0.0286883
798.397	0.0277117
798.531	0.0280168
798.666	0.0286272
798.8	0.0285662
798.935	0.0287493
799.069	0.0279558
799.204	0.028322
799.338	0.0275896
799.473	0.0277727
799.607	0.0282
799.742	0.0271623
799.876	0.0277117
800.011	0.0283831
800.145	0.0279558
800.28	0.0278337
800.414	0.0280168
800.549	0.0278948
800.683	0.0280779
800.818	0.0274675
800.953	0.0277117
801.087	0.0285662
801.222	0.0277727
801.356	0.0284441
801.491	0.0286272
801.625	0.0280168
801.76	0.0285052
801.894	0.028322
802.029	0.0271013
802.163	0.0288714
802.298	0.0288714
802.432	0.0283831
802.567	0.0283831
802.701	0.0286272
802.836	0.0275285
802.97	0.0282
803.105	0.0282
803.239	0.0283831
803.374	0.0285052
803.508	0.0289324
803.643	0.028322
803.777	0.0275896
803.912	0.0285052
804.046	0.0286272
804.181	0.0285052
804.315	0.0278337
804.45	0.0284441
804.584	0.0289935
804.719	0.0286883
804.853	0.0286272
804.988	0.0286272
805.122	0.0284441
805.257	0.0293597
805.391	0.0290545
805.526	0.0286883
805.66	0.0285662
805.795	0.0292376
805.929	0.0286883
806.064	0.0285662
806.198	0.0292987
806.333	0.0289324
806.467	0.0293597
806.602	0.0294818
806.736	0.0299091
806.871	0.0292987
807.005	0.0291766
807.14	0.0291155
807.274	0.0302142
807.409	0.0307026
807.543	0.0296039
807.678	0.0306415
807.812	0.0296649
807.947	0.0304584
808.081	0.0302753
808.216	0.0293597
808.35	0.0308857
808.485	0.0307026
808.619	0.0309467
808.754	0.0302753
808.888	0.0311909
809.023	0.0310078
809.157	0.0307636
809.292	0.0319844
809.426	0.0323506
809.561	0.033022
809.695	0.0322285
809.83	0.0338155
809.964	0.0343039
810.099	0.0343039
810.233	0.0358298
810.368	0.0357688
810.502	0.0360129
810.637	0.0368064
810.771	0.0379051
810.906	0.0372948
811.04	0.0387597
811.175	0.0413233
811.309	0.0422389
811.444	0.0430324
811.578	0.0465116
811.713	0.0494415
811.847	0.0501129
811.982	0.0645791
812.116	0.440396
812.251	0.975035
812.385	1
812.519	1
812.654	1
812.788	1
812.923	1
813.057	1
813.192	1
813.326	1
813.461	1
813.595	1
813.73	1
813.864	0.996521
813.999	1
814.133	0.992919
814.268	0.995422
814.402	0.986205
814.537	0.988464
814.671	0.976866
814.806	0.976988
814.94	0.957456
815.075	0.956662
815.209	0.758408
815.344	0.250565
815.478	0.0771531
815.612	0.0600012
815.747	0.0545688
815.881	0.0623817
816.016	0.0731246
816.15	0.051883
816.285	0.0404077
816.419	0.037722
816.554	0.0371116
816.688	0.0359519
816.823	0.0365013
816.957	0.0347922
817.092	0.0341207
817.226	0.0343039
817.361	0.0333883
817.495	0.032961
817.63	0.032961
817.764	0.0325337
817.898	0.0328389
818.033	0.0329
818.167	0.0314961
818.302	0.0312519
818.436	0.0315571
818.571	0.0307636
818.705	0.0306415
818.84	0.0316181
818.974	0.0306415
819.109	0.029787
819.243	0.0299701
819.378	0.0300311
819.512	0.0303974
819.646	0.0304584
819.781	0.0295428
819.915	0.0294818
820.05	0.0294818
820.184	0.0294207
820.319	0.0285662
820.453	0.0285662
820.588	0.0291155
820.722	0.0289324
820.857	0.0286272
820.991	0.0284441
821.126	0.0284441
821.26	0.0289324
821.394	0.0286883
821.529	0.0286272
821.663	0.0291766
821.798	0.0286883
821.932	0.0285052
822.067	0.0289324
822.201	0.0292376
822.336	0.0286272
822.47	0.0285052
822.605	0.0286272
822.739	0.0289324
822.873	0.0285662
823.008	0.0287493
823.142	0.028322
823.277	0.028322
823.411	0.028322
823.546	0.028261
823.68	0.0281389
823.815	0.0287493
823.949	0.0286883
824.083	0.0283831
824.218	0.0278337
824.352	0.028261
824.487	0.0279558
824.621	0.0273454
824.756	0.0287493
824.89	0.0277727
825.025	0.0280168
825.159	0.0275285
825.293	0.0278948
825.428	0.0281389
825.562	0.028322
825.697	0.0280779
825.831	0.0279558
825.966	0.0277727
826.1	0.0277727
826.235	0.0279558
826.369	0.0281389
826.503	0.0276506
826.638	0.0289935
826.772	0.0287493
826.907	0.0282
827.041	0.0284441
827.176	0.0283831
827.31	0.0278337
827.445	0.0276506
827.579	0.0277727
827.713	0.0280779
827.848	0.0280168
827.982	0.0277727
828.117	0.0278948
828.251	0.0281389
828.386	0.0277727
828.52	0.0272844
828.654	0.0280168
828.789	0.028261
828.923	0.0278337
829.058	0.0276506
829.192	0.0284441
829.327	0.0278337
829.461	0.0275896
829.596	0.028322
829.73	0.0284441
829.864	0.0280168
829.999	0.0275896
830.133	0.0274675
830.268	0.028261
830.402	0.0281389
830.537	0.0285052
830.671	0.026674
830.805	0.0288714
830.94	0.0280168
831.074	0.0273454
831.209	0.0277727
831.343	0.0277727
831.478	0.0282
831.612	0.0275896
831.746	0.0288104
831.881	0.0269792
832.015	0.0271013
832.15	0.0276506
832.284	0.0277117
832.418	0.0278948
832.553	0.0280168
832.687	0.0280168
832.822	0.0272233
832.956	0.0270402
833.091	0.0276506
833.225	0.0274675
833.359	0.0283831
833.494	0.0276506
833.628	0.028322
833.763	0.0279558
833.897	0.026674
834.032	0.0272844
834.166	0.0264298
834.3	0.0272233
834.435	0.028261
834.569	0.0275285
834.704	0.0284441
834.838	0.0271623
834.972	0.0274675
835.107	0.0272844
835.241	0.0277727
835.376	0.0280168
835.51	0.0274065
835.645	0.0276506
835.779	0.0279558
835.913	0.0272844
836.048	0.0278948
836.182	0.0284441
836.317	0.0278337
836.451	0.0276506
836.585	0.0278948
836.72	0.0275285
836.854	0.0276506
836.989	0.0275896
837.123	0.0285052
837.257	0.0286883
837.392	0.0288104
837.526	0.0273454
837.661	0.0273454
837.795	0.0278948
837.929	0.0283831
838.064	0.0272233
838.198	0.028322
838.333	0.0275896
838.467	0.0271013
838.602	0.0278948
838.736	0.0273454
838.87	0.0281389
839.005	0.0272844
839.139	0.0272233
839.274	0.0281389
839.408	0.0279558
839.542	0.0278337
839.677	0.0273454
839.811	0.0282
839.946	0.0269792
840.08	0.0271623
840.214	0.0280779
840.349	0.0271623
840.483	0.0282
840.618	0.0275896
840.752	0.0272844
840.886	0.0284441
841.021	0.0272233
841.155	0.0276506
841.29	0.0278337
841.424	0.0278948
841.558	0.0277727
841.693	0.0279558
841.827	0.0272844
841.961	0.0278337
842.096	0.0283831
842.23	0.0269181
842.365	0.0267961
842.499	0.0278337
842.633	0.0275285
842.768	0.0275285
842.902	0.0277117
843.037	0.0271623
843.171	0.0278337
843.305	0.0278948
843.44	0.0273454
843.574	0.0269181
843.709	0.0280779
843.843	0.0275896
843.977	0.0279558
844.112	0.0276506
844.246	0.0277727
844.381	0.0274065
844.515	0.0279558
844.649	0.026735
844.784	0.0274675
844.918	0.0278337
845.052	0.0271623
845.187	0.0278948
845.321	0.0275896
845.456	0.0274675
845.59	0.0280779
845.724	0.0271623
845.859	0.0275285
845.993	0.0282
846.128	0.0276506
846.262	0.0280168
846.396	0.0274675
846.531	0.0279558
846.665	0.0276506
846.799	0.0268571
846.934	0.0278948
847.068	0.0283831
847.203	0.0280168
847.337	0.0276506
847.471	0.0278948
847.606	0.0278337
847.74	0.0272233
847.874	0.0277727
848.009	0.0272844
848.143	0.028261
848.278	0.0271013
848.412	0.0272233
848.546	0.0277117
848.681	0.0278337
848.815	0.0271623
848.949	0.0271623
849.084	0.0271623
849.218	0.0281389
849.353	0.0280168
849.487	0.0277117
849.621	0.0275896
849.756	0.0274675
849.89	0.0278948
850.024	0.028261
850.159	0.0289324
850.293	0.0282
850.428	0.0282
850.562	0.0276506
850.696	0.0277117
850.831	0.0273454
850.965	0.0274675
851.099	0.0278337
851.234	0.0276506
851.368	0.0271013
851.502	0.0275896
851.637	0.0275285
851.771	0.0272233
851.906	0.0278948
852.04	0.0274065
852.174	0.0275285
852.309	0.0278948
852.443	0.0280779
852.577	0.0272844
852.712	0.0275896
852.846	0.0280168
852.98	0.026735
853.115	0.0277727
853.249	0.0274065
853.384	0.0278337
853.518	0.0274675
853.652	0.0281389
853.787	0.028322
853.921	0.0277727
854.055	0.0270402
854.19	0.0273454
854.324	0.0283831
854.458	0.0275896
854.593	0.0276506
854.727	0.0273454
854.861	0.0274065
854.996	0.0275285
855.13	0.0264298
855.265	0.0269792
855.399	0.0280168
855.533	0.0275285
855.668	0.0275896
855.802	0.0275896
855.936	0.0275285
856.071	0.0269181
856.205	0.0280168
856.339	0.0277727
856.474	0.0275285
856.608	0.028322
856.742	0.0274675
856.877	0.0272844
857.011	0.0275896
857.145	0.0274675
857.28	0.0277117
857.414	0.0275896
857.549	0.0276506
857.683	0.0274675
857.817	0.0278948
857.952	0.0275285
858.086	0.0274675
858.22	0.0277727
858.355	0.0274065
858.489	0.0270402
858.623	0.028322
858.758	0.0283831
858.892	0.0275896
859.026	0.0275896
859.161	0.0272233
859.295	0.0278337
859.429	0.0273454
859.564	0.0280779
859.698	0.0274065
859.832	0.0275285
859.967	0.0277117
860.101	0.0278337
860.235	0.0269792
860.37	0.0278948
860.504	0.026613
860.638	0.0277117
860.773	0.0280779
860.907	0.0279558
861.041	0.0278948
861.176	0.0280168
861.31	0.0277117
861.444	0.0275285
861.579	0.0271623
861.713	0.0277117
861.847	0.0278337
861.982	0.0285662
862.116	0.0278948
862.25	0.0273454
862.385	0.0278337
862.519	0.0282
862.653	0.0269792
862.788	0.0277117
862.922	0.0273454
863.056	0.0275896
863.191	0.0271013
863.325	0.0276506
863.459	0.0274675
863.594	0.0275896
863.728	0.0275896
863.862	0.0274675
863.997	0.0271623
864.131	0.0274065
864.265	0.0276506
864.4	0.0274065
864.534	0.0274065
864.668	0.0274675
864.803	0.0275896
864.937	0.028261
865.071	0.0278948
865.206	0.028322
865.34	0.0277117
865.474	0.0278337
865.609	0.028322
865.743	0.0269181
865.877	0.0278337
866.012	0.0283831
866.146	0.0280168
866.28	0.0278948
866.415	0.0279558
866.549	0.0271013
866.683	0.0271623
866.818	0.0278948
866.952	0.0278948
867.086	0.0289324
867.221	0.0270402
867.355	0.0274065
867.489	0.0277117
867.623	0.0280779
867.758	0.0277727
867.892	0.0278337
868.026	0.0275285
868.161	0.0274675
868.295	0.0263078
868.429	0.026735
868.564	0.0283831
868.698	0.0274675
868.832	0.0280779
868.967	0.0276506
869.101	0.0272844
869.235	0.0276506
869.37	0.0268571
869.504	0.0277117
869.638	0.0272233
869.773	0.0271623
869.907	0.0274675
870.041	0.0267961
870.175	0.0276506
870.31	0.0275285
870.444	0.0275285
870.578	0.0276506
870.713	0.0275285
870.847	0.0279558
870.981	0.0275285
871.116	0.0277117
871.25	0.0281389
871.384	0.0275285
871.519	0.0268571
871.653	0.0275896
871.787	0.0277727
871.921	0.0280168
872.056	0.0278337
872.19	0.0272844
872.324	0.0272844
872.459	0.0275285
872.593	0.0287493
872.727	0.0284441
872.862	0.0278337
872.996	0.0275285
873.13	0.0274065
873.264	0.0277117
873.399	0.0264298
873.533	0.0274675
873.667	0.0282
873.802	0.0279558
873.936	0.0277117
874.07	0.0277117
874.205	0.0275896
874.339	0.0279558
874.473	0.0276506
874.607	0.0276506
874.742	0.026735
874.876	0.0270402
875.01	0.0274065
875.145	0.0278948
875.279	0.0280168
875.413	0.0271623
875.548	0.0275285
875.682	0.0272233
875.816	0.0269792
875.95	0.0272844
876.085	0.0275285
876.219	0.0273454
876.353	0.0275285
876.488	0.0285052
876.622	0.0267961
876.756	0.0280779
876.89	0.0272233
877.025	0.026735
877.159	0.0277117
877.293	0.0272233
877.428	0.026613
877.562	0.0278948
877.696	0.0275285
877.83	0.0282
877.965	0.0275285
878.099	0.0262467
878.233	0.0292376
878.368	0.0278337
878.502	0.0281389
878.636	0.0276506
878.77	0.0276506
878.905	0.0273454
879.039	0.028261
879.173	0.0280168
879.308	0.0267961
879.442	0.0271623
879.576	0.0278337
879.71	0.0274065
879.845	0.0285662
879.979	0.0275285
880.113	0.0272844
880.248	0.0273454
880.382	0.0278337
880.516	0.0275896
880.65	0.0275896
880.785	0.0275896
880.919	0.0267961
881.053	0.0279558
881.188	0.0272233
881.322	0.0274675
881.456	0.0278948
881.59	0.0291155
881.725	0.0277117
881.859	0.0272233
881.993	0.0275896
882.127	0.0273454
882.262	0.0275896
882.396	0.0271623
882.53	0.0269181
882.665	0.0268571
882.799	0.0280168
882.933	0.0281389
883.067	0.0271623
883.202	0.0273454
883.336	0.0274065
883.47	0.0281389
883.604	0.0267961
883.739	0.0288714
883.873	0.0273454
884.007	0.0286272
884.142	0.0271013
884.276	0.0275285
884.41	0.0277727
884.544	0.0283831
884.679	0.0268571
884.813	0.0278948
884.947	0.0269792
885.081	0.0272844
885.216	0.0277727
885.35	0.0275896
885.484	0.0279558
885.618	0.0276506
885.753	0.0275285
885.887	0.0271013
886.021	0.0265519
886.155	0.0277727
886.29	0.0270402
886.424	0.0273454
886.558	0.028261
886.693	0.0281389
886.827	0.0273454
886.961	0.0282
887.095	0.0271623
887.23	0.0272233
887.364	0.0273454
887.498	0.0279558
887.632	0.0269792
887.767	0.0282
887.901	0.028322
888.035	0.0284441
888.169	0.0271623
888.304	0.0270402
888.438	0.0277117
888.572	0.0265519
888.706	0.0288714
888.841	0.0281389
888.975	0.0287493
889.109	0.0276506
889.243	0.0278337
889.378	0.0277117
889.512	0.0268571
889.646	0.0283831
889.78	0.0282
889.915	0.0269792
890.049	0.0274065
890.183	0.0280779
890.317	0.026613
890.452	0.0272233
890.586	0.0274675
890.72	0.0288104
890.854	0.0274065
890.989	0.0275896
891.123	0.0274675
891.257	0.0277727
891.391	0.0280168
891.526	0.0283831
891.66	0.0276506
891.794	0.0275285
891.928	0.0288714
892.063	0.0275285
892.197	0.0267961
892.331	0.028322
892.465	0.0277727
892.6	0.0272233
892.734	0.0269792
892.868	0.0275285
893.002	0.0281389
893.137	0.0271013
893.271	0.0279558
893.405	0.0276506
893.539	0.0269792
893.674	0.0280779
893.808	0.0274675
893.942	0.0274675
894.076	0.0276506
894.21	0.0276506
894.345	0.0281389
894.479	0.0277117
894.613	0.0272844
894.747	0.0275896
894.882	0.0275285
895.016	0.0276506
895.15	0.0274065
895.284	0.0274065
895.419	0.0274065
895.553	0.0281389
895.687	0.0280168
895.821	0.0285662
895.956	0.0279558
896.09	0.0278948
896.224	0.0273454
896.358	0.0278337
896.492	0.0277117
896.627	0.0276506
896.761	0.0277727
896.895	0.0275285
897.029	0.0269792
897.164	0.0272233
897.298	0.0271013
897.432	0.0273454
897.566	0.0275285
897.701	0.0277117
897.835	0.0277727
897.969	0.0277117
898.103	0.0280168
898.237	0.0277117
898.372	0.028261
898.506	0.028261
898.64	0.0275285
898.774	0.0272233
898.909	0.0276506
899.043	0.0274065
899.177	0.0268571
899.311	0.0275896
899.445	0.0276506
899.58	0.0286883
899.714	0.0278948
899.848	0.028261
899.982	0.0277727
900.117	0.0276506
900.251	0.0270402
900.385	0.0275285
900.519	0.0272233
900.653	0.026735
900.788	0.0280779
900.922	0.0274065
901.056	0.0277727
901.19	0.0282
901.325	0.0270402
901.459	0.0280168
901.593	0.0277727
901.727	0.0284441
901.861	0.0275896
901.996	0.0282
902.13	0.0274675
902.264	0.0280779
902.398	0.0272233
902.532	0.0274065
902.667	0.0279558
902.801	0.0273454
902.935	0.0276506
903.069	0.0278948
903.204	0.0270402
903.338	0.0280168
903.472	0.0274065
903.606	0.0271013
903.74	0.0277117
903.875	0.0272233
904.009	0.0269792
904.143	0.0269792
904.277	0.0275285
904.411	0.0277727
904.546	0.0286883
904.68	0.0280168
904.814	0.0280168
904.948	0.0280168
905.082	0.0276506
905.217	0.0271623
905.351	0.0276506
905.485	0.0282
905.619	0.0281389
905.753	0.0277727
905.888	0.0277727
906.022	0.0276506
906.156	0.0275896
906.29	0.0271623
906.424	0.0280168
906.559	0.0274675
906.693	0.0275896
906.827	0.0283831
906.961	0.0271013
907.095	0.0272233
907.23	0.0278948
907.364	0.0275285
907.498	0.0275285
907.632	0.0278948
907.766	0.0269792
907.901	0.0280168
908.035	0.0278948
908.169	0.0283831
908.303	0.0271623
908.437	0.0275896
908.572	0.0273454
908.706	0.0274065
908.84	0.0277727
908.974	0.0279558
909.108	0.0279558
909.243	0.0279558
909.377	0.0280779
909.511	0.0274675
909.645	0.0276506
909.779	0.0280779
909.914	0.0274065
910.048	0.0268571
910.182	0.0264909
910.316	0.0281389
910.45	0.0278337
910.585	0.0271623
910.719	0.0285052
910.853	0.0286272
910.987	0.0275285
911.121	0.0284441
911.255	0.0272233
911.39	0.0280168
911.524	0.0278337
911.658	0.0273454
911.792	0.0285052
911.926	0.0274675
912.061	0.0280779
912.195	0.0271623
912.329	0.0269181
912.463	0.0272844
912.597	0.0280168
912.732	0.0285662
912.866	0.0275285
913	0.0280168
913.134	0.0272844
913.268	0.0285662
913.402	0.0275285
913.537	0.0277727
913.671	0.0282
913.805	0.0270402
913.939	0.0269792
914.073	0.0276506
914.208	0.0280779
914.342	0.026735
914.476	0.0270402
914.61	0.0275285
914.744	0.0272233
914.878	0.0270402
915.013	0.0285052
915.147	0.0278948
915.281	0.0276506
915.415	0.0269792
915.549	0.0277117
915.683	0.0287493
915.818	0.0271623
915.952	0.0281389
916.086	0.0272233
916.22	0.0277727
916.354	0.0277117
916.488	0.0277727
916.623	0.0277727
916.757	0.0283831
916.891	0.0279558
917.025	0.0274065
917.159	0.0283831
917.293	0.0271623
917.428	0.0273454
917.562	0.0283831
917.696	0.0275896
917.83	0.0275285
917.964	0.0284441
918.098	0.0285052
918.233	0.0272233
918.367	0.0271623
918.501	0.0283831
918.635	0.0276506
918.769	0.0282
918.903	0.0281389
919.038	0.0267961
919.172	0.0277117
919.306	0.0282
919.44	0.0280779
919.574	0.0275285
919.708	0.0269181
919.843	0.0274065
919.977	0.0279558
920.111	0.0274675
920.245	0.0280779
920.379	0.028322
920.513	0.0275896
920.648	0.0274065
920.782	0.0274675
920.916	0.0280779
921.05	0.0277117
921.184	0.0271623
921.318	0.0274675
921.453	0.028322
921.587	0.028322
921.721	0.0274065
921.855	0.0277117
921.989	0.0271013
922.123	0.0280168
922.257	0.0282
922.392	0.0269181
922.526	0.0272844
922.66	0.0275285
922.794	0.0275285
922.928	0.026735
923.062	0.0274065
923.197	0.0278337
923.331	0.028261
923.465	0.028261
923.599	0.0280168
923.733	0.0278337
923.867	0.0275896
924.001	0.0277117
924.136	0.0278948
924.27	0.0274065
924.404	0.0279558
924.538	0.0280168
924.672	0.0277117
924.806	0.0285052
924.94	0.028322
925.075	0.0286272
925.209	0.0278337
925.343	0.0277727
925.477	0.0277727
925.611	0.0276506
925.745	0.0275285
925.879	0.0280168
926.014	0.0271013
926.148	0.0278337
926.282	0.0278337
926.416	0.0277117
926.55	0.0275285
926.684	0.0278337
926.818	0.0271013
926.953	0.0277727
927.087	0.0274675
927.221	0.028261
927.355	0.0279558
927.489	0.0272844
927.623	0.0280168
927.757	0.0275285
927.892	0.0275896
928.026	0.0274065
928.16	0.0278337
928.294	0.0281389
928.428	0.0277117
928.562	0.0277117
928.696	0.026674
928.831	0.028322
928.965	0.0285052
929.099	0.0278337
929.233	0.0283831
929.367	0.0272233
929.501	0.0280779
929.635	0.0279558
929.769	0.0278337
929.904	0.0273454
930.038	0.0285662
930.172	0.0268571
930.306	0.0276506
930.44	0.0273454
930.574	0.0281389
930.708	0.0280779
930.843	0.0272233
930.977	0.0275285
931.111	0.0280168
931.245	0.0278337
931.379	0.0277727
931.513	0.0274065
931.647	0.0277117
931.781	0.0270402
931.916	0.0275896
932.05	0.0269181
932.184	0.0272844
932.318	0.0277117
932.452	0.0277727
932.586	0.0289935
932.72	0.0281389
932.854	0.0274675
932.989	0.0275285
933.123	0.0281389
933.257	0.0280779
933.391	0.0275285
933.525	0.0273454
933.659	0.0279558
933.793	0.0280779
933.927	0.0274675
934.061	0.0275285
934.196	0.0275285
934.33	0.0275896
934.464	0.028261
934.598	0.0278948
934.732	0.0280779
934.866	0.0277117
935	0.0267961
935.134	0.0275285
935.269	0.0283831
935.403	0.0274065
935.537	0.0277727
935.671	0.0276506
935.805	0.0283831
935.939	0.0277117
936.073	0.0280168
936.207	0.0277117
936.341	0.0277727
936.476	0.0278337
936.61	0.0275285
936.744	0.0273454
936.878	0.0279558
937.012	0.0277117
937.146	0.0271013
937.28	0.0275896
937.414	0.0280168
937.548	0.0278337
937.683	0.0277727
937.817	0.0279558
937.951	0.0275285
938.085	0.0277727
938.219	0.0275285
938.353	0.0272844
938.487	0.0280168
938.621	0.0275896
938.755	0.0278337
938.889	0.0270402
939.024	0.0275285
939.158	0.0275285
939.292	0.0274675
939.426	0.0271013
939.56	0.0271623
939.694	0.0278948
939.828	0.0277117
939.962	0.0275285
940.096	0.0271623
940.231	0.0283831
940.365	0.0274675
940.499	0.0267961
940.633	0.0276506
940.767	0.0275285
940.901	0.028322
941.035	0.0268571
941.169	0.0280168
941.303	0.0275285
941.437	0.0277117
941.571	0.0271623
941.706	0.0272233
941.84	0.0281389
941.974	0.0270402
942.108	0.0269181
942.242	0.0269181
942.376	0.0274675
942.51	0.0271013
942.644	0.026735
942.778	0.0282
942.912	0.0272233
943.047	0.0278948
943.181	0.0272844
943.315	0.028261
943.449	0.0285052
943.583	0.0277727
943.717	0.0276506
943.851	0.0272233
943.985	0.0273454
944.119	0.0278948
944.253	0.0278337
944.387	0.0272233
944.522	0.0278948
944.656	0.0277727
944.79	0.0278337
944.924	0.0271623
945.058	0.0278337
945.192	0.0277117
945.326	0.0278948
945.46	0.0277117
945.594	0.026613
945.728	0.0280779
945.862	0.0272844
945.996	0.0269792
946.131	0.0274065
946.265	0.0277117
946.399	0.0282
946.533	0.0279558
946.667	0.0277117
946.801	0.0272844
946.935	0.0274065
947.069	0.0276506
947.203	0.0277117
947.337	0.0289324
947.471	0.0272233
947.605	0.0284441
947.739	0.0274065
947.874	0.0281389
948.008	0.0276506
948.142	0.0275285
948.276	0.0274675
948.41	0.0284441
948.544	0.0286272
948.678	0.0274675
948.812	0.0280168
948.946	0.0275285
949.08	0.0279558
949.214	0.028322
949.348	0.0278337
949.482	0.0274065
949.617	0.0280779
949.751	0.0286883
949.885	0.0285662
950.019	0.0277117
950.153	0.0277117
950.287	0.0269181
950.421	0.0272844
950.555	0.028261
950.689	0.0274065
950.823	0.0274675
950.957	0.0278948
951.091	0.0282
951.225	0.0281389
951.359	0.0275285
951.493	0.0271623
951.628	0.0280779
951.762	0.026735
951.896	0.0286272
952.03	0.028322
952.164	0.0278948
952.298	0.0285662
952.432	0.028322
952.566	0.0279558
952.7	0.0284441
952.834	0.0282
952.968	0.0272233
953.102	0.0274065
953.236	0.0276506
953.37	0.0284441
953.504	0.0272233
953.639	0.0285052
953.773	0.0271623
953.907	0.0272233
954.041	0.0275896
954.175	0.0271623
954.309	0.0272844
954.443	0.0272233
954.577	0.0287493
954.711	0.0275896
954.845	0.0280779
954.979	0.0271013
955.113	0.0274675
955.247	0.0271623
955.381	0.0280779
955.515	0.0271623
955.649	0.0274675
955.783	0.0279558
955.917	0.0277117
956.052	0.0275285
956.186	0.0281389
956.32	0.0280779
956.454	0.0288104
956.588	0.0275285
956.722	0.0285662
956.856	0.0282
956.99	0.0275896
957.124	0.0272233
957.258	0.0277117
957.392	0.0276506
957.526	0.0270402
957.66	0.0278337
957.794	0.0277117
957.928	0.0269181
958.062	0.0274675
958.196	0.0275896
958.33	0.0270402
958.464	0.0285662
958.598	0.0277727
958.733	0.0276506
958.867	0.0291155
959.001	0.028322
959.135	0.0277117
959.269	0.0274675
959.403	0.0280168
959.537	0.0275285
959.671	0.0277117
959.805	0.0280779
959.939	0.0277117
960.073	0.0271623
960.207	0.0277727
960.341	0.0276506
960.475	0.0274675
960.609	0.0282
960.743	0.0280168
960.877	0.028261
961.011	0.0278948
961.145	0.0275896
961.279	0.028322
961.413	0.0280779
961.547	0.0277117
961.681	0.0279558
961.815	0.0292376
961.949	0.0285052
962.083	0.0267961
962.218	0.0280168
962.352	0.0275896
962.486	0.0277727
962.62	0.0283831
962.754	0.0279558
962.888	0.0278337
963.022	0.0275285
963.156	0.0284441
963.29	0.0284441
963.424	0.0277117
963.558	0.0271623
963.692	0.0276506
963.826	0.0274675
963.96	0.0277117
964.094	0.0276506
964.228	0.0278337
964.362	0.0275285
964.496	0.0277117
964.63	0.0275285
964.764	0.0271623
964.898	0.0264298
965.032	0.0274065
965.166	0.0277727
965.3	0.0271623
965.434	0.0274065
965.568	0.0275285
965.702	0.0278337
965.836	0.0284441
965.97	0.0274065
966.104	0.0275285
966.238	0.0277117
966.372	0.0272844
966.506	0.026735
966.64	0.028261
966.774	0.0277117
966.908	0.0274675
967.043	0.0276506
967.177	0.0271013
967.311	0.0273454
967.445	0.0269792
967.579	0.0275896
967.713	0.0269792
967.847	0.0268571
967.981	0.0278948
968.115	0.0277727
968.249	0.0267961
968.383	0.0278948
968.517	0.0285662
968.651	0.0275285
968.785	0.0273454
968.919	0.0275896
969.053	0.0278948
969.187	0.0282
969.321	0.0275285
969.455	0.0277117
969.589	0.0270402
969.723	0.028322
969.857	0.0278948
969.991	0.0278948
970.125	0.0284441
970.259	0.0277117
970.393	0.0276506
970.527	0.0275285
970.661	0.0279558
970.795	0.0274065
970.929	0.0267961
971.063	0.0277727
971.197	0.0276506
971.331	0.0269792
971.465	0.0283831
971.599	0.0277727
971.733	0.0278948
971.867	0.0269181
972.001	0.0276506
972.135	0.0274065
972.269	0.0277727
972.403	0.0277117
972.537	0.0277117
972.671	0.0272844
972.805	0.0279558
972.939	0.0271623
973.073	0.0275285
973.207	0.0276506
973.341	0.0283831
973.475	0.0280779
973.609	0.0274675
973.743	0.0272233
973.877	0.0280168
974.011	0.0280779
974.145	0.0274065
974.279	0.0267961
974.413	0.0280168
974.547	0.0268571
974.681	0.0270402
974.815	0.0280779
974.949	0.0278337
975.083	0.0273454
975.217	0.026613
975.351	0.0284441
975.485	0.026613
975.619	0.0277117
975.753	0.0276506
975.887	0.0280168
976.021	0.0280168
976.155	0.0276506
976.289	0.0277727
976.423	0.0278948
976.557	0.0275896
976.691	0.0285662
976.825	0.0281389
976.959	0.0275896
977.093	0.0280168
977.227	0.0280168
977.361	0.0277727
977.495	0.0268571
977.629	0.0271623
977.763	0.0280779
977.897	0.0271013
978.031	0.0277117
978.165	0.0277117
978.299	0.0279558
978.433	0.0278948
978.567	0.0279558
978.701	0.0274065
978.835	0.0278948
978.969	0.0280168
979.103	0.0276506
979.237	0.0277117
979.371	0.0278948
979.505	0.0274675
979.639	0.0280168
979.773	0.0282
979.907	0.0280168
980.041	0.026674
980.175	0.0278948
980.308	0.0279558
980.442	0.0272233
980.576	0.0277727
980.71	0.0271623
980.844	0.0274675
980.978	0.0278337
981.112	0.0282
981.246	0.0280779
981.38	0.0279558
981.514	0.0271623
981.648	0.0278948
981.782	0.0283831
981.916	0.0262467
982.05	0.0282
982.184	0.0276506
982.318	0.0280168
982.452	0.0267961
982.586	0.0274065
982.72	0.0284441
982.854	0.0267961
982.988	0.0278337
983.122	0.0275896
983.256	0.0277727
983.39	0.0268571
983.524	0.0275285
983.658	0.0278948
983.792	0.0276506
983.926	0.0268571
984.06	0.0285052
984.194	0.0277727
984.328	0.0277117
984.462	0.0276506
984.596	0.0274675
984.73	0.0276506
984.864	0.0277117
984.998	0.026674
985.132	0.0279558
985.265	0.0278948
985.399	0.0271013
985.533	0.0275285
985.667	0.0282
985.801	0.0272233
985.935	0.0275896
986.069	0.0278337
986.203	0.0280779
986.337	0.0272844
986.471	0.0278948
986.605	0.0269181
986.739	0.0277727
986.873	0.0275285
987.007	0.0270402
987.141	0.0286272
987.275	0.0280168
987.409	0.0270402
987.543	0.0277117
987.677	0.0269181
987.811	0.0275285
987.945	0.0275285
988.079	0.0271013
988.213	0.0275896
988.347	0.0275285
988.481	0.0276506
988.614	0.0273454
988.748	0.0273454
988.882	0.0280168
989.016	0.028261
989.15	0.0284441
989.284	0.0280168
989.418	0.028261
989.552	0.0284441
989.686	0.0275285
989.82	0.0278337
989.954	0.0272233
990.088	0.0277117
990.222	0.0268571
990.356	0.0278337
990.49	0.028322
990.624	0.0270402
990.758	0.0284441
990.892	0.0271623
991.026	0.0275896
991.16	0.0279558
991.294	0.0274675
991.427	0.0272233
991.561	0.028322
991.695	0.0273454
991.829	0.0277117
991.963	0.0269181
992.097	0.0283831
992.231	0.0277117
992.365	0.0280779
992.499	0.0274065
992.633	0.0271013
992.767	0.0274675
992.901	0.0277727
993.035	0.0274065
993.169	0.0270402
993.303	0.0286272
993.437	0.0283831
993.571	0.0279558
993.704	0.0284441
993.838	0.0278337
993.972	0.0271013
994.106	0.0281389
994.24	0.0275896
994.374	0.0277727
994.508	0.0271013
994.642	0.0279558
994.776	0.0282
994.91	0.0263688
995.044	0.0278337
995.178	0.0280779
995.312	0.0274675
995.446	0.0276506
995.58	0.0277117
995.714	0.0282
995.847	0.0280168
995.981	0.0271623
996.115	0.0276506
996.249	0.0280779
996.383	0.0277117
996.517	0.0274065
996.651	0.0282
996.785	0.0271623
996.919	0.0275285
997.053	0.0270402
997.187	0.0274675
997.321	0.0273454
997.455	0.0269792
997.589	0.0276506
997.722	0.0282
997.856	0.026674
997.99	0.0277117
998.124	0.0269181
998.258	0.0275285
998.392	0.0285662
998.526	0.0275896
998.66	0.0280779
998.794	0.0274675
998.928	0.0277117
999.062	0.0283831
999.196	0.0269181
999.33	0.0278948
999.464	0.0278337
999.597	0.0286883
999.731	0.0278948
999.865	0.0261857
999.999	0.0278337
1000.13	0.0277117
1000.27	0.0279558
1000.4	0.0269792
1000.53	0.0265519
1000.67	0.0269792
1000.8	0.0284441
1000.94	0.0279558
1001.07	0.0279558
1001.2	0.0285662
1001.34	0.0277117
1001.47	0.0282
1001.61	0.0278337
1001.74	0.0273454
1001.87	0.0279558
1002.01	0.0274065
1002.14	0.0272844
1002.28	0.0274065
1002.41	0.0281389
1002.54	0.0276506
1002.68	0.0285662
1002.81	0.0276506
1002.95	0.0280168
1003.08	0.0272844
1003.21	0.0272233
1003.35	0.0287493
1003.48	0.0272844
1003.61	0.0278337
1003.75	0.0274675
1003.88	0.0280779
1004.02	0.0282
1004.15	0.0280779
1004.28	0.0269792
1004.42	0.0275896
1004.55	0.0277117
1004.69	0.0272844
1004.82	0.0277727
1004.95	0.0274675
1005.09	0.0272233
1005.22	0.0274675
1005.36	0.0278948
1005.49	0.0285662
1005.62	0.0275896
1005.76	0.0275896
1005.89	0.0274675
1006.03	0.0269792
1006.16	0.0277727
1006.29	0.0270402
1006.43	0.0285052
1006.56	0.0278948
1006.69	0.0275285
1006.83	0.0284441
1006.96	0.0279558
1007.1	0.0288104
1007.23	0.0272844
1007.36	0.0275285
1007.5	0.0274675
1007.63	0.0289324
1007.77	0.0280168
1007.9	0.0277117
1008.03	0.0275896
1008.17	0.0277117
1008.3	0.0263078
1008.44	0.0278337
1008.57	0.0280168
1008.7	0.0271013
1008.84	0.0277727
1008.97	0.0282
1009.1	0.0284441
1009.24	0.0271013
1009.37	0.0275896
1009.51	0.028261
1009.64	0.028261
1009.77	0.0278337
1009.91	0.0272233
1010.04	0.0277727
1010.18	0.0276506
1010.31	0.0272233
1010.44	0.0273454
1010.58	0.0269181
1010.71	0.0279558
1010.85	0.026735
1010.98	0.0275896
1011.11	0.0276506
1011.25	0.0271623
1011.38	0.026735
1011.51	0.0268571
1011.65	0.0277727
1011.78	0.0279558
1011.92	0.0273454
1012.05	0.0277727
1012.18	0.0271623
1012.32	0.0279558
1012.45	0.0278337
1012.59	0.0272844
1012.72	0.0272233
1012.85	0.0281389
1012.99	0.0276506
1013.12	0.0280779
1013.26	0.0275285
1013.39	0.0274675
1013.52	0.0272233
1013.66	0.0276506
1013.79	0.0269792
1013.92	0.0275285
1014.06	0.0279558
1014.19	0.0269181
1014.33	0.028261
1014.46	0.028322
1014.59	0.0272844
1014.73	0.0277117
1014.86	0.0274675
1015	0.0282
1015.13	0.028322
1015.26	0.0277727
1015.4	0.028322
1015.53	0.0271013
1015.67	0.0277727
1015.8	0.0272844
1015.93	0.0283831
1016.07	0.0275285
1016.2	0.0282
1016.33	0.0287493
1016.47	0.0280779
1016.6	0.0277727
1016.74	0.0271623
1016.87	0.0279558
1017	0.0271623
1017.14	0.0263078
1017.27	0.0269181
1017.41	0.0274675
1017.54	0.0272233
1017.67	0.0276506
1017.81	0.028261
1017.94	0.0272844
1018.07	0.0271013
1018.21	0.0270402
1018.34	0.0272844
1018.48	0.0276506
1018.61	0.0277727
1018.74	0.026735
1018.88	0.026613
1019.01	0.0277727
1019.15	0.0264298
1019.28	0.0275896
1019.41	0.028322
1019.55	0.0271623
1019.68	0.028261
1019.82	0.0280168
1019.95	0.0280168
1020.08	0.0277117
1020.22	0.0284441
1020.35	0.0280779
1020.48	0.0265519
1020.62	0.0278948
1020.75	0.0276506
1020.89	0.0289935
1021.02	0.0282
1021.15	0.0280168
1021.29	0.0275285
1021.42	0.0282
1021.56	0.0281389
1021.69	0.0274675
1021.82	0.0278337
1021.96	0.0275896
1022.09	0.0274065
1022.22	0.0281389
1022.36	0.028322
1022.49	0.0287493
1022.63	0.0272844
1022.76	0.0274675
1022.89	0.0277727
1023.03	0.0275285
1023.16	0.0281389
1023.3	0.0270402
1023.43	0.0281389
1023.56	0.0275285
1023.7	0.0275285
1023.83	0.0274675
1023.96	0.0275285
1024.1	0.0271013
1024.23	0.0274065
1024.37	0.0276506
1024.5	0.0278337
1024.63	0.0283831
1024.77	0.0280168
1024.9	0.0277117
1025.04	0.0271013
1025.17	0.0276506
1025.3	0.0288714
1025.44	0.0271013
1025.57	0.0271623
1025.7	0.0276506
1025.84	0.0274675
1025.97	0.0271623
1026.11	0.0274065
1026.24	0.0274675
1026.37	0.0276506
1026.51	0.026674
1026.64	0.0272844
1026.78	0.0274065
1026.91	0.0272844
1027.04	0.0278948
1027.18	0.0276506
1027.31	0.0278948
1027.44	0.0279558
1027.58	0.0267961
1027.71	0.0277117
1027.85	0.0272233
1027.98	0.0282
1028.11	0.0271013
1028.25	0.0278337
1028.38	0.0277117
1028.52	0.0270402
1028.65	0.0273454
1028.78	0.0270402
1028.92	0.0278948
1029.05	0.0273454
1029.18	0.0272844
1029.32	0.0275896
1029.45	0.0274065
1029.59	0.0269792
1029.72	0.0277117
1029.85	0.0280779
1029.99	0.0281389
1030.12	0.0277117
1030.26	0.0262467
1030.39	0.0280168
1030.52	0.0282
1030.66	0.0286883
1030.79	0.0274065
1030.92	0.0280168
1031.06	0.0281389
1031.19	0.0286883
1031.33	0.0281389
1031.46	0.0277727
1031.59	0.0277727
1031.73	0.0278948
1031.86	0.0267961
1031.99	0.0284441
1032.13	0.0280168
1032.26	0.0280779
1032.4	0.0281389
1032.53	0.0272233
1032.66	0.0277727
1032.8	0.0276506
1032.93	0.0273454
1033.07	0.0274675
1033.2	0.028261
1033.33	0.0280779
1033.47	0.0278337
1033.6	0.0277117
1033.73	0.0285052
1033.87	0.0281389
1034	0.0274065
1034.14	0.0275285
1034.27	0.0270402
1034.4	0.0275285
1034.54	0.0280779
1034.67	0.0275285
1034.81	0.0279558
1034.94	0.028322
1035.07	0.0271623
1035.21	0.0285052
1035.34	0.0276506
1035.47	0.0285052
1035.61	0.0275285
1035.74	0.0263078
1035.88	0.0275285
1036.01	0.0275896
1036.14	0.0278948
1036.28	0.0270402
1036.41	0.0272233
1036.54	0.028322
1036.68	0.026674
1036.81	0.0274675
1036.95	0.0274065
1037.08	0.0282
1037.21	0.0271013
1037.35	0.0278337
1037.48	0.0275285
1037.62	0.0278337
1037.75	0.0285052
1037.88	0.0277727
1038.02	0.0278337
1038.15	0.0273454
1038.28	0.0280168
1038.42	0.0275896
1038.55	0.0272844
1038.69	0.0278337
1038.82	0.0280168
1038.95	0.0276506
1039.09	0.0277727
1039.22	0.0278337
1039.35	0.0274675
1039.49	0.0272844
1039.62	0.0276506
1039.76	0.0281389
1039.89	0.0274065
1040.02	0.0279558
1040.16	0.0278948
1040.29	0.0277117
1040.43	0.0281389
1040.56	0.028322
1040.69	0.026613
1040.83	0.0275285
1040.96	0.0280779
1041.09	0.0278337
1041.23	0.0274675
1041.36	0.0273454
1041.5	0.0274675
1041.63	0.026735
1041.76	0.0278337
1041.9	0.0285662
1042.03	0.0276506
1042.16	0.0278948
1042.3	0.0274675
1042.43	0.0278948
1042.57	0.0272233
1042.7	0.0281389
1042.83	0.0273454
1042.97	0.0276506
1043.1	0.0275896
1043.23	0.0279558
1043.37	0.0282
1043.5	0.0280779
1043.64	0.0281389
1043.77	0.0277117
1043.9	0.0278337
1044.04	0.0276506
1044.17	0.0281389
1044.31	0.0270402
1044.44	0.026674
1044.57	0.0269792
1044.71	0.0278948
1044.84	0.0280779
1044.97	0.0277727
1045.11	0.0274675
1045.24	0.0280779
1045.38	0.0277727
1045.51	0.0282
1045.64	0.0272233
1045.78	0.0274675
1045.91	0.0271013
1046.04	0.0280168
1046.18	0.0275285
1046.31	0.0278337
1046.45	0.0277727
1046.58	0.0269792
1046.71	0.0277117
1046.85	0.0282
1046.98	0.0272844
1047.11	0.0279558
1047.25	0.0277727
1047.38	0.0288104
1047.52	0.0271623
1047.65	0.0276506
1047.78	0.0277117
1047.92	0.0270402
1048.05	0.0279558
1048.18	0.0277727
1048.32	0.0275896
1048.45	0.0274065
1048.59	0.0275285
1048.72	0.028322
1048.85	0.0264298
1048.99	0.0284441
1049.12	0.0270402
1049.25	0.0280779
1049.39	0.0277727
1049.52	0.0281389
1049.66	0.0274675
1049.79	0.028322
1049.92	0.0268571
1050.06	0.0281389
1050.19	0.0277727
1050.33	0.0286883
1050.46	0.0276506
1050.59	0.0275285
1050.73	0.0285662
1050.86	0.0275285
1050.99	0.0278337
1051.13	0.0264909
1051.26	0.0269181
1051.4	0.0271013
1051.53	0.0274065
1051.66	0.0278337
1051.8	0.028322
1051.93	0.0265519
1052.06	0.0288714
1052.2	0.0271623
1052.33	0.0272233
1052.47	0.0276506
1052.6	0.0280168
1052.73	0.0275285
1052.87	0.028261
1053	0.0275896
1053.13	0.0273454
1053.27	0.0278948
1053.4	0.0275896
1053.54	0.0274675
1053.67	0.0278948
1053.8	0.028322
1053.94	0.0274065
1054.07	0.0270402
1054.2	0.0274675
1054.34	0.0272233
1054.47	0.0278337
1054.61	0.0268571
1054.74	0.0272844
1054.87	0.0278948
1055.01	0.0269181
1055.14	0.0278337
1055.27	0.0276506
1055.41	0.0282
1055.54	0.0270402
1055.68	0.0285052
1055.81	0.028261
1055.94	0.0274065
1056.08	0.0278337
1056.21	0.0274675
1056.34	0.0269792
1056.48	0.0273454
1056.61	0.0273454
1056.75	0.0277727
1056.88	0.0269792
1057.01	0.0278948
1057.15	0.0278337
1057.28	0.028322
1057.41	0.0286883
1057.55	0.0277727
1057.68	0.0279558
1057.82	0.0275896
1057.95	0.0277117
1058.08	0.0277727
1058.22	0.0282
1058.35	0.028322
1058.48	0.0277727
1058.62	0.0275896
1058.75	0.0281389
1058.89	0.0275896
1059.02	0.0273454
1059.15	0.026674
1059.29	0.0280779
1059.42	0.0278337
1059.55	0.0278337
1059.69	0.0271623
1059.82	0.0276506
1059.96	0.0269181
1060.09	0.0273454
1060.22	0.0274675
1060.36	0.0267961
1060.49	0.028261
1060.62	0.0274675
1060.76	0.0277727
1060.89	0.0275896
1061.03	0.0277117
1061.16	0.0280779
1061.29	0.0272233
1061.43	0.0276506
1061.56	0.0277727
1061.69	0.0268571
1061.83	0.0278948
1061.96	0.0283831
1062.1	0.0283831
1062.23	0.0279558
1062.36	0.0275285
1062.5	0.0276506
1062.63	0.0274065
1062.76	0.0280779
1062.9	0.0281389
1063.03	0.0275285
1063.17	0.0280168
1063.3	0.0276506
1063.43	0.0283831
1063.57	0.0276506
1063.7	0.0277727
1063.83	0.0278337
1063.97	0.0278337
1064.1	0.0278337
1064.23	0.0281389
1064.37	0.0281389
1064.5	0.0278337
1064.64	0.0278948
1064.77	0.0281389
1064.9	0.0285052
1065.04	0.0282
1065.17	0.0272844
1065.3	0.0272233
1065.44	0.0279558
1065.57	0.0274675
1065.71	0.0278337
1065.84	0.0275285
1065.97	0.0273454
1066.11	0.0280168
1066.24	0.0276506
1066.37	0.0282
1066.51	0.0278337
1066.64	0.0277727
1066.78	0.0274675
1066.91	0.0279558
1067.04	0.028261
1067.18	0.0278948
1067.31	0.0274675
1067.44	0.0279558
1067.58	0.0277727
1067.71	0.0271013
1067.85	0.0270402
1067.98	0.0286272
1068.11	0.0278337
1068.25	0.0269792
1068.38	0.0285052
1068.51	0.0274675
1068.65	0.0274675
1068.78	0.028261
1068.92	0.0270402
1069.05	0.0280779
1069.18	0.0280779
1069.32	0.0275896
1069.45	0.0264909
1069.58	0.0277117
1069.72	0.026735
1069.85	0.0271623
1069.98	0.0277117
1070.12	0.0282
1070.25	0.026735
1070.39	0.0275896
1070.52	0.0263688
1070.65	0.0279558
1070.79	0.0276506
1070.92	0.0271013
1071.05	0.0277117
1071.19	0.0277117
1071.32	0.0276506
1071.46	0.0275896
1071.59	0.0282
1071.72	0.0275285
1071.86	0.0280779
1071.99	0.0286883
1072.12	0.0275285
1072.26	0.0273454
1072.39	0.0276506
1072.53	0.0280779
1072.66	0.0282
1072.79	0.0275896
1072.93	0.0279558
1073.06	0.0275896
1073.19	0.0277727
1073.33	0.0275896
1073.46	0.0271013
1073.59	0.0274675
1073.73	0.0275285
1073.86	0.0284441
1074	0.0277117
1074.13	0.0282
1074.26	0.0280779
1074.4	0.0271623
1074.53	0.0280168
1074.66	0.0276506
1074.8	0.0274065
1074.93	0.0268571
1075.07	0.0270402
1075.2	0.0275285
1075.33	0.0282
1075.47	0.0276506
1075.6	0.0272844
1075.73	0.0270402
1075.87	0.0279558
1076	0.0280168
1076.14	0.0275285
1076.27	0.0280168
1076.4	0.0269181
1076.54	0.0279558
1076.67	0.0277117
1076.8	0.0274065
1076.94	0.0275285
1077.07	0.0279558
1077.2	0.0269792
1077.34	0.026613
1077.47	0.0280168
1077.61	0.0280779
1077.74	0.0270402
1077.87	0.0273454
1078.01	0.0274675
1078.14	0.0285052
1078.27	0.0280168
1078.41	0.0274065
1078.54	0.0271623
1078.68	0.0272844
1078.81	0.0270402
1078.94	0.0278948
1079.08	0.0269792
1079.21	0.0277117
1079.34	0.0288104
1079.48	0.0274065
1079.61	0.0280168
1079.74	0.0281389
1079.88	0.0274675
1080.01	0.0274675
1080.15	0.0269792
1080.28	0.0280168
1080.41	0.0277727
1080.55	0.0275285
1080.68	0.0277727
1080.81	0.0277117
1080.95	0.0282
1081.08	0.0272844
1081.22	0.0274675
1081.35	0.0272844
1081.48	0.0268571
1081.62	0.0285052
1081.75	0.0277727
1081.88	0.028261
1082.02	0.0286272
1082.15	0.0273454
1082.28	0.0275285
1082.42	0.0277727
1082.55	0.0277727
1082.69	0.0278948
1082.82	0.0280168
1082.95	0.0269792
1083.09	0.0273454
1083.22	0.0279558
1083.35	0.0276506
1083.49	0.0280168
1083.62	0.0269181
1083.75	0.0280168
1083.89	0.0267961
1084.02	0.0275285
1084.16	0.0275285
1084.29	0.0275896
1084.42	0.0271623
1084.56	0.0278948
1084.69	0.0274675
1084.82	0.0271623
1084.96	0.0279558
1085.09	0.0275285
1085.23	0.0275285
1085.36	0.0272844
1085.49	0.0280168
1085.63	0.0285052
1085.76	0.0274675
1085.89	0.0278337
1086.03	0.028261
1086.16	0.0278948
1086.29	0.0282
1086.43	0.0285662
1086.56	0.0273454
1086.7	0.0278337
1086.83	0.0274675
1086.96	0.0274675
1087.1	0.0280779
1087.23	0.0267961
1087.36	0.0280168
1087.5	0.0274065
1087.63	0.0282
1087.76	0.0277117
1087.9	0.0269181
1088.03	0.0284441
1088.17	0.0286272
1088.3	0.0274675
1088.43	0.0279558
1088.57	0.0267961
1088.7	0.0283831
1088.83	0.0281389
1088.97	0.0272844
1089.1	0.0286883
1089.24	0.0279558
1089.37	0.0274065
1089.5	0.0271013
1089.64	0.0275896
1089.77	0.028322
1089.9	0.0275896
1090.04	0.0272233
1090.17	0.0273454
1090.3	0.0278948
1090.44	0.0281389
1090.57	0.0285662
1090.71	0.0281389
1090.84	0.0271623
1090.97	0.0269181
1091.11	0.0278337
1091.24	0.0274675
1091.37	0.0277117
1091.51	0.0277117
1091.64	0.0276506
1091.77	0.0267961
1091.91	0.0285052
1092.04	0.0272844
1092.18	0.0280779
1092.31	0.0285662
1092.44	0.0280168
1092.58	0.0279558
1092.71	0.0280168
1092.84	0.0280168
1092.98	0.0270402
1093.11	0.0272844
1093.24	0.0272844
1093.38	0.0282
1093.51	0.0280168
1093.65	0.0277117
1093.78	0.0280168
1093.91	0.0272233
1094.05	0.0277117
1094.18	0.0269181
1094.31	0.0280779
1094.45	0.0277727
1094.58	0.0274675
1094.71	0.0277727
1094.85	0.0278948
1094.98	0.028322
1095.12	0.0275896
1095.25	0.0267961
1095.38	0.0272233
1095.52	0.0272844
1095.65	0.0269181
1095.78	0.0272233
1095.92	0.0281389
1096.05	0.0269792
1096.18	0.0278337
1096.32	0.0272844
1096.45	0.0271623
1096.59	0.0276506
1096.72	0.0277117
1096.85	0.0280168
1096.99	0.0284441
1097.12	0.0272844
1097.25	0.0276506
1097.39	0.0275285
1097.52	0.0272233
1097.65	0.0286883
1097.79	0.0269792
1097.92	0.0277727
1098.06	0.028322
1098.19	0.0274065
1098.32	0.0282
1098.46	0.0274065
1098.59	0.0278948
1098.72	0.0278948
1098.86	0.0278948
1098.99	0.0280168
1099.12	0.0279558
1099.26	0.0285052
1099.39	0.0278337
1099.53	0.0275896
1099.66	0.0279558
1099.79	0.0272233
1099.93	0.0283831
1100.06	0.0272233
1100.19	0.0275285
1100.33	0.0275285
1100.46	0.0275285
1100.59	0.0279558
1100.73	0.0278948
1100.86	0.0280168
1100.99	0.0277727
1101.13	0.0275896
1101.26	0.0281389
1101.4	0.0275896
1101.53	0.028322
1101.66	0.0275896
1101.8	0.0280779
1101.93	0.0272844
1102.06	0.0281389
1102.2	0.0283831
1102.33	0.0283831
1102.46	0.0276506
1102.6	0.0281389
1102.73	0.0274065
1102.87	0.0275896
1103	0.0280779
1103.13	0.0284441
1103.27	0.0275896
1103.4	0.0271013
1103.53	0.0272233
1103.67	0.0285662
1103.8	0.0280168
1103.93	0.0277727
1104.07	0.0274675
1104.2	0.0277117
1104.34	0.0285662
1104.47	0.0277727
1104.6	0.0269181
1104.74	0.0278948
1104.87	0.0281389
1105	0.0279558
1105.14	0.0278337
1105.27	0.028322
1105.4	0.0270402
1105.54	0.0274065
1105.67	0.0274675
1105.8	0.0277727
1105.94	0.0272233
1106.07	0.0274675
1106.21	0.0277117
1106.34	0.0272233
1106.47	0.0276506
1106.61	0.0277117
1106.74	0.0274675
1106.87	0.0275285
1107.01	0.0275896
1107.14	0.0278948
1107.27	0.0273454
1107.41	0.0271623
1107.54	0.0277727

